     Èas / s    Napìtí / V
       0,000 -6,40000E-006
       0,239 -5,40000E-006
       0,479 -2,70000E-006
       0,719  3,30000E-006
       0,959  1,10000E-005
       1,199  1,91000E-005
       1,559  3,52000E-005
       1,789  4,72000E-005
       2,028  5,66000E-005
       2,268  7,10000E-005
       2,758  9,35000E-005
       3,238  1,11400E-004
       4,197  1,44500E-004
       4,677  1,58400E-004
       4,917  1,66100E-004
       5,147  1,74800E-004
       5,387  1,82500E-004
       5,626  1,89900E-004
       5,866  1,94300E-004
       6,106  1,98400E-004
       6,346  2,03900E-004
       6,586  2,08400E-004
       6,826  2,12600E-004
       7,066  2,17200E-004
       7,306  2,20500E-004
       7,545  2,23400E-004
       7,785  2,26800E-004
       8,025  2,30000E-004
       8,265  2,32000E-004
       8,505  2,34900E-004
       8,745  2,36500E-004
       8,985  2,38600E-004
       9,215  2,40400E-004
       9,455  2,42000E-004
       9,695  2,43600E-004
       9,934  2,45300E-004
      10,174  2,46500E-004
      10,414  2,47500E-004
      10,654  2,49000E-004
      10,894  2,49700E-004
      11,134  2,50700E-004
      11,374  2,51600E-004
      11,614  2,52200E-004
      11,853  2,52500E-004
      12,093  2,52800E-004
      12,333  2,53400E-004
      12,573  2,54200E-004
      12,813  2,54100E-004
      13,053  2,54500E-004
      13,293  2,54600E-004
      13,533  2,54800E-004
      13,773  2,54300E-004
      14,012  2,54700E-004
      14,252  2,54300E-004
      14,492  2,54100E-004
      14,732  2,53900E-004
      14,972  2,54000E-004
      15,212  2,53500E-004
      15,452  2,53000E-004
      15,692  2,52700E-004
      15,932  2,52300E-004
      16,171  2,51900E-004
      16,411  2,51100E-004
      16,651  2,50900E-004
      16,891  2,50200E-004
      17,131  2,49500E-004
      17,371  2,48900E-004
      17,611  2,48100E-004
      17,841  2,47800E-004
      18,081  2,47100E-004
      18,321  2,46600E-004
      18,561  2,46100E-004
      18,801  2,45000E-004
      19,041  2,44300E-004
      19,281  2,43600E-004
      19,521  2,42900E-004
      19,761  2,42000E-004
      20,001  2,41300E-004
      20,241  2,40700E-004
      20,481  2,40000E-004
      20,720  2,39000E-004
      20,960  2,38100E-004
      21,200  2,37700E-004
      21,440  2,36800E-004
      21,680  2,35900E-004
      21,920  2,35000E-004
      22,160  2,34500E-004
      22,400  2,33400E-004
      22,640  2,32700E-004
      22,879  2,31900E-004
      23,119  2,31300E-004
      23,359  2,30100E-004
      23,599  2,29400E-004
      23,839  2,28500E-004
      24,079  2,27700E-004
      24,319  2,27000E-004
      24,558  2,26200E-004
      24,798  2,25400E-004
      25,038  2,24400E-004
      25,278  2,23800E-004
      25,518  2,23000E-004
      25,758  2,21800E-004
      25,998  2,20800E-004
      26,238  2,20000E-004
      26,478  2,19600E-004
      26,718  2,18700E-004
      26,958  2,17900E-004
      27,198  2,17200E-004
      27,438  2,16100E-004
      27,678  2,15600E-004
      27,917  2,14900E-004
      28,157  2,14300E-004
      28,397  2,13400E-004
      28,637  2,12600E-004
      28,877  2,11900E-004
      29,117  2,10900E-004
      29,357  2,10100E-004
      29,597  2,09100E-004
      29,837  2,08500E-004
      30,077  2,08000E-004
      30,316  2,06900E-004
      30,556  2,06300E-004
      30,796  2,05700E-004
      31,036  2,04600E-004
      31,276  2,04000E-004
      31,516  2,02900E-004
      31,756  2,02400E-004
      31,996  2,01800E-004
      32,236  2,01100E-004
      32,475  2,00300E-004
      32,715  1,99900E-004
      32,955  1,98900E-004
      33,195  1,98200E-004
      33,435  1,97500E-004
      33,675  1,96700E-004
      33,915  1,96000E-004
      34,155  1,95100E-004
      34,395  1,94800E-004
      34,635  1,93800E-004
      34,875  1,93100E-004
      35,115  1,92500E-004
      35,354  1,91900E-004
      35,594  1,90800E-004
      35,834  1,90300E-004
      36,074  1,89600E-004
      36,314  1,89000E-004
      36,554  1,88300E-004
      36,794  1,88100E-004
      37,034  1,86700E-004
      37,273  1,86400E-004
      37,513  1,85800E-004
      37,754  1,84800E-004
      37,993  1,84900E-004
      38,233  1,83900E-004
      38,473  1,83400E-004
      38,713  1,82500E-004
      38,953  1,81800E-004
      39,193  1,81100E-004
      39,433  1,80400E-004
      39,673  1,80100E-004
      39,913  1,79200E-004
      40,153  1,78700E-004
      40,392  1,78200E-004
      40,632  1,77600E-004
      40,872  1,76500E-004
      41,112  1,76000E-004
      41,352  1,75600E-004
      41,592  1,74800E-004
      41,832  1,74500E-004
      42,072  1,73800E-004
      42,312  1,73000E-004
      42,552  1,72800E-004
      42,792  1,72000E-004
      43,032  1,71300E-004
      43,272  1,71000E-004
      43,512  1,70600E-004
      43,752  1,70000E-004
      43,992  1,69100E-004
      44,232  1,68400E-004
      44,472  1,68100E-004
      44,712  1,67500E-004
      44,952  1,66900E-004
      45,192  1,66800E-004
      45,432  1,66300E-004
      45,672  1,65700E-004
      45,912  1,65000E-004
      46,152  1,64600E-004
      46,392  1,63600E-004
      46,631  1,63300E-004
      46,872  1,62800E-004
      47,112  1,62100E-004
      47,351  1,61600E-004
      47,591  1,61300E-004
      47,831  1,60700E-004
      48,071  1,60100E-004
      48,311  1,59900E-004
      48,551  1,59000E-004
      48,791  1,58900E-004
      49,031  1,58100E-004
      49,271  1,57900E-004
      49,511  1,57300E-004
      49,750  1,56800E-004
      49,991  1,56100E-004
      50,231  1,56000E-004
      50,471  1,55400E-004
      50,711  1,54800E-004
      50,951  1,54300E-004
      51,190  1,53600E-004
      51,430  1,53200E-004
      51,671  1,52900E-004
      51,911  1,52400E-004
      52,151  1,51700E-004
      52,391  1,51300E-004
      52,631  1,51100E-004
      52,871  1,50500E-004
      53,111  1,50500E-004
      53,352  1,49800E-004
      53,592  1,49000E-004
      53,832  1,48800E-004
      54,072  1,48400E-004
      54,312  1,48200E-004
      54,553  1,47500E-004
      54,793  1,46900E-004
      55,033  1,46700E-004
      55,273  1,46100E-004
      55,514  1,45700E-004
      55,754  1,45500E-004
      55,994  1,44800E-004
      56,234  1,44400E-004
      56,474  1,43800E-004
      56,715  1,43800E-004
      56,955  1,43300E-004
      57,195  1,42800E-004
      57,435  1,42700E-004
      57,675  1,41900E-004
      57,915  1,41400E-004
      58,155  1,41500E-004
      58,395  1,40900E-004
      58,635  1,40300E-004
      58,875  1,40100E-004
      59,115  1,39800E-004
      59,365  1,39200E-004
      59,595  1,38900E-004
      59,835  1,38600E-004
      60,075  1,38200E-004
      60,315  1,37600E-004
      60,555  1,37600E-004
      60,795  1,37300E-004
      61,035  1,36800E-004
      61,275  1,36300E-004
      61,516  1,35800E-004
      61,766  1,35400E-004
      61,996  1,35200E-004
      62,236  1,34700E-004
      62,476  1,34300E-004
      62,726  1,34300E-004
      62,956  1,33600E-004
      63,196  1,33400E-004
      63,437  1,33100E-004
      63,677  1,32400E-004
      63,917  1,32100E-004
      64,157  1,32000E-004
      64,408  1,31200E-004
      64,638  1,31300E-004
      64,888  1,31100E-004
      65,118  1,30400E-004
      65,368  1,30300E-004
      65,598  1,29800E-004
      65,848  1,29600E-004
      66,078  1,29300E-004
      66,328  1,29200E-004
      66,558  1,29000E-004
      66,808  1,28000E-004
      67,038  1,27900E-004
      67,288  1,27700E-004
      67,518  1,27200E-004
      67,768  1,26900E-004
      67,998  1,26900E-004
      68,239  1,25800E-004
      68,479  1,26000E-004
      68,729  1,26000E-004
      68,959  1,25400E-004
      69,199  1,24700E-004
      69,449  1,24600E-004
      69,680  1,24500E-004
      69,930  1,24200E-004
      70,160  1,23900E-004
      70,410  1,23500E-004
      70,640  1,23200E-004
      70,890  1,22500E-004
      71,120  1,22300E-004
      71,370  1,21900E-004
      71,600  1,22200E-004
      71,850  1,21500E-004
      72,080  1,21500E-004
      72,320  1,20700E-004
      72,560  1,20800E-004
      72,810  1,20600E-004
      73,040  1,19800E-004
      73,290  1,19700E-004
      73,520  1,19600E-004
      73,770  1,19100E-004
      74,000  1,18900E-004
      74,250  1,18700E-004
      74,481  1,18400E-004
      74,731  1,18300E-004
      74,961  1,17800E-004
      75,211  1,17800E-004
      75,441  1,17400E-004
      75,681  1,17200E-004
      75,931  1,16700E-004
      76,171  1,16500E-004
      76,411  1,16300E-004
      76,641  1,15900E-004
      76,891  1,15600E-004
      77,131  1,15500E-004
      77,371  1,14800E-004
      77,602  1,14900E-004
      77,853  1,14400E-004
      78,083  1,14100E-004
      78,333  1,14100E-004
      78,563  1,14000E-004
      78,803  1,13600E-004
      79,053  1,13400E-004
      79,293  1,12700E-004
      79,533  1,12700E-004
      79,763  1,12500E-004
      80,003  1,12400E-004
      80,254  1,12000E-004
      80,494  1,11800E-004
      80,734  1,11300E-004
      80,974  1,11500E-004
      81,214  1,11000E-004
      81,444  1,10900E-004
      81,694  1,10800E-004
      81,924  1,10400E-004
      82,174  1,10200E-004
      82,414  1,10000E-004
      82,654  1,09600E-004
      82,894  1,09700E-004
      83,135  1,09300E-004
      83,375  1,09000E-004
      83,605  1,08700E-004
      83,855  1,08400E-004
      84,096  1,08400E-004
      84,326  1,08200E-004
      84,576  1,07600E-004
      84,816  1,07700E-004
      85,057  1,06900E-004
      85,297  1,07100E-004
      85,537  1,07200E-004
      85,777  1,06700E-004
      86,007  1,06300E-004
      86,257  1,05900E-004
      86,498  1,05900E-004
      86,738  1,05800E-004
      86,978  1,05600E-004
      87,219  1,05200E-004
      87,459  1,05200E-004
      87,699  1,04700E-004
      87,939  1,04600E-004
      88,180  1,04500E-004
      88,420  1,04100E-004
      88,660  1,04000E-004
      88,900  1,03700E-004
      89,140  1,03900E-004
      89,380  1,03300E-004
      89,620  1,03000E-004
      89,861  1,02300E-004
      90,101  1,02500E-004
      90,341  1,02600E-004
      90,581  1,02300E-004
      90,821  1,02000E-004
      91,061  1,01700E-004
      91,300  1,01600E-004
      91,540  1,01100E-004
      91,780  1,01000E-004
      92,020  1,00900E-004
      92,260  1,00600E-004
      92,500  1,00700E-004
      92,740  1,00300E-004
      92,980  1,00100E-004
      93,220  9,98000E-005
      93,460  9,99000E-005
      93,700  9,97000E-005
      93,940  9,93000E-005
      94,180  9,92000E-005
      94,420  9,91000E-005
      94,660  9,88000E-005
      94,900  9,87000E-005
      95,140  9,81000E-005
      95,380  9,81000E-005
      95,610  9,79000E-005
      95,859  9,74000E-005
      96,099  9,82000E-005
      96,339  9,78000E-005
      96,579  9,74000E-005
      96,819  9,71000E-005
      97,059  9,70000E-005
      97,299  9,67000E-005
      97,539  9,64000E-005
      97,779  9,63000E-005
      98,019  9,62000E-005
      98,259  9,56000E-005
      98,499  9,64000E-005
      98,739  9,54000E-005
      98,979  9,52000E-005
      99,219  9,50000E-005
      99,459  9,50000E-005
      99,690  9,47000E-005
      99,940  9,49000E-005
     100,180  9,46000E-005
     100,420  9,44000E-005
     100,659  9,42000E-005
     100,899  9,45000E-005
     101,139  9,36000E-005
     101,379  9,37000E-005
     101,619  9,33000E-005
     101,859  9,31000E-005
     102,099  9,33000E-005
     102,339  9,30000E-005
     102,580  9,28000E-005
     102,820  9,27000E-005
     103,060  9,23000E-005
     103,300  9,20000E-005
     103,540  9,23000E-005
     103,780  9,18000E-005
     104,020  9,20000E-005
     104,260  9,16000E-005
     104,499  9,12000E-005
     104,739  9,16000E-005
     104,979  9,14000E-005
     105,219  9,09000E-005
     105,459  9,09000E-005
     105,699  9,05000E-005
     105,939  9,05000E-005
     106,179  9,07000E-005
     106,418  8,99000E-005
     106,658  9,00000E-005
     106,898  8,98000E-005
     107,138  9,00000E-005
     107,378  8,95000E-005
     107,618  8,92000E-005
     107,858  8,93000E-005
     108,098  8,90000E-005
     108,337  8,88000E-005
     108,577  8,88000E-005
     108,817  8,85000E-005
     109,057  8,85000E-005
     109,297  8,84000E-005
     109,537  8,81000E-005
     109,777  8,78000E-005
     110,017  8,77000E-005
     110,256  8,76000E-005
     110,496  8,76000E-005
     110,736  8,71000E-005
     110,976  8,73000E-005
     111,216  8,68000E-005
     111,456  8,66000E-005
     111,696  8,67000E-005
     111,935  8,67000E-005
     112,175  8,62000E-005
     112,415  8,64000E-005
     112,655  8,66000E-005
     112,895  8,61000E-005
     113,135  8,60000E-005
     113,375  8,57000E-005
     113,615  8,58000E-005
     113,854  8,54000E-005
     114,094  8,54000E-005
     114,324  8,49000E-005
     114,574  8,54000E-005
     114,814  8,46000E-005
     115,054  8,45000E-005
     115,294  8,48000E-005
     115,534  8,45000E-005
     115,773  8,47000E-005
     116,013  8,43000E-005
     116,253  8,40000E-005
     116,493  8,36000E-005
     116,733  8,33000E-005
     116,973  8,38000E-005
     117,213  8,33000E-005
     117,453  8,34000E-005
     117,692  8,34000E-005
     117,932  8,28000E-005
     118,172  8,27000E-005
     118,412  8,28000E-005
     118,652  8,25000E-005
     118,892  8,27000E-005
     119,132  8,25000E-005
     119,372  8,25000E-005
     119,611  8,25000E-005
     119,851  8,21000E-005
     120,091  8,18000E-005
     120,331  8,16000E-005
     120,571  8,16000E-005
     120,811  8,15000E-005
     121,051  8,14000E-005
     121,290  8,12000E-005
     121,530  8,10000E-005
     121,770  8,13000E-005
     122,010  8,10000E-005
     122,250  8,06000E-005
     122,490  8,09000E-005
     122,730  8,07000E-005
     122,970  8,05000E-005
     123,209  8,00000E-005
     123,449  8,02000E-005
     123,689  8,03000E-005
     123,929  8,00000E-005
     124,169  8,00000E-005
     124,399  8,00000E-005
     124,639  7,95000E-005
     124,889  7,89000E-005
     125,128  7,93000E-005
     125,368  7,92000E-005
     125,608  7,90000E-005
     125,848  7,85000E-005
     126,088  7,85000E-005
     126,318  7,85000E-005
     126,568  7,84000E-005
     126,808  7,88000E-005
     127,047  7,85000E-005
     127,287  7,84000E-005
     127,527  7,82000E-005
     127,767  7,81000E-005
     128,007  7,78000E-005
     128,247  7,78000E-005
     128,487  7,75000E-005
     128,727  7,73000E-005
     128,966  7,75000E-005
     129,206  7,71000E-005
     129,446  7,74000E-005
     129,686  7,70000E-005
     129,926  7,67000E-005
     130,166  7,69000E-005
     130,406  7,65000E-005
     130,645  7,67000E-005
     130,885  7,70000E-005
     131,125  7,63000E-005
     131,365  7,62000E-005
     131,605  7,61000E-005
     131,845  7,61000E-005
     132,075  7,60000E-005
     132,325  7,59000E-005
     132,565  7,57000E-005
     132,804  7,57000E-005
     133,044  7,55000E-005
     133,284  7,52000E-005
     133,524  7,51000E-005
     133,764  7,57000E-005
     134,004  7,52000E-005
     134,244  7,50000E-005
     134,483  7,54000E-005
     134,723  7,48000E-005
     134,963  7,47000E-005
     135,203  7,47000E-005
     135,443  7,42000E-005
     135,683  7,44000E-005
     135,923  7,44000E-005
     136,163  7,40000E-005
     136,402  7,37000E-005
     136,642  7,40000E-005
     136,882  7,35000E-005
     137,122  7,39000E-005
     137,362  7,34000E-005
     137,602  7,37000E-005
     137,842  7,34000E-005
     138,082  7,30000E-005
     138,321  7,32000E-005
     138,561  7,31000E-005
     138,801  7,31000E-005
     139,041  7,27000E-005
     139,281  7,28000E-005
     139,521  7,27000E-005
     139,761  7,26000E-005
     140,001  7,24000E-005
     140,240  7,19000E-005
     140,480  7,22000E-005
     140,720  7,21000E-005
     140,960  7,25000E-005
     141,200  7,15000E-005
     141,440  7,19000E-005
     141,680  7,18000E-005
     141,920  7,20000E-005
     142,159  7,12000E-005
     142,399  7,17000E-005
     142,639  7,14000E-005
     142,879  7,14000E-005
     143,119  7,12000E-005
     143,359  7,13000E-005
     143,599  7,11000E-005
     143,838  7,09000E-005
     144,078  7,06000E-005
     144,318  7,05000E-005
     144,558  7,06000E-005
     144,798  7,01000E-005
     145,038  7,00000E-005
     145,278  7,03000E-005
     145,518  7,04000E-005
     145,757  7,02000E-005
     145,997  6,99000E-005
     146,237  6,97000E-005
     146,477  6,93000E-005
     146,717  6,97000E-005
     146,957  6,98000E-005
     147,197  6,93000E-005
     147,437  6,93000E-005
     147,676  6,92000E-005
     147,916  6,89000E-005
     148,156  6,89000E-005
     148,396  6,88000E-005
     148,636  6,88000E-005
     148,876  6,89000E-005
     149,116  6,83000E-005
     149,356  6,86000E-005
     149,595  6,84000E-005
     149,835  6,85000E-005
     150,075  6,82000E-005
     150,315  6,77000E-005
     150,555  6,80000E-005
     150,795  6,77000E-005
     151,035  6,77000E-005
     151,275  6,77000E-005
     151,514  6,74000E-005
     151,754  6,75000E-005
     151,994  6,72000E-005
     152,234  6,72000E-005
     152,474  6,74000E-005
     152,714  6,69000E-005
     152,954  6,69000E-005
     153,193  6,68000E-005
     153,433  6,69000E-005
     153,673  6,66000E-005
     153,913  6,66000E-005
     154,153  6,66000E-005
     154,393  6,63000E-005
     154,633  6,62000E-005
     154,873  6,59000E-005
     155,112  6,57000E-005
     155,352  6,56000E-005
     155,592  6,58000E-005
     155,832  6,58000E-005
     156,072  6,54000E-005
     156,312  6,53000E-005
     156,552  6,56000E-005
     156,792  6,55000E-005
     157,031  6,54000E-005
     157,271  6,52000E-005
     157,511  6,48000E-005
     157,751  6,47000E-005
     157,991  6,48000E-005
     158,231  6,46000E-005
     158,471  6,46000E-005
     158,711  6,48000E-005
     158,950  6,47000E-005
     159,190  6,47000E-005
     159,430  6,43000E-005
     159,670  6,42000E-005
     159,910  6,38000E-005
     160,150  6,40000E-005
     160,390  6,38000E-005
     160,630  6,39000E-005
     160,869  6,35000E-005
     161,109  6,39000E-005
     161,349  6,36000E-005
     161,589  6,38000E-005
     161,829  6,32000E-005
     162,069  6,33000E-005
     162,309  6,34000E-005
     162,548  6,33000E-005
     162,788  6,31000E-005
     163,028  6,31000E-005
     163,268  6,27000E-005
     163,508  6,31000E-005
     163,748  6,28000E-005
     163,988  6,26000E-005
     164,228  6,24000E-005
     164,467  6,26000E-005
     164,707  6,22000E-005
     164,947  6,23000E-005
     165,187  6,24000E-005
     165,427  6,22000E-005
     165,667  6,19000E-005
     165,907  6,19000E-005
     166,147  6,18000E-005
     166,386  6,19000E-005
     166,626  6,15000E-005
     166,866  6,16000E-005
     167,106  6,17000E-005
     167,346  6,15000E-005
     167,586  6,12000E-005
     167,826  6,13000E-005
     168,066  6,10000E-005
     168,305  6,11000E-005
     168,545  6,10000E-005
     168,785  6,06000E-005
     169,025  6,08000E-005
     169,265  6,07000E-005
     169,505  6,06000E-005
     169,745  6,07000E-005
     169,985  6,05000E-005
     170,224  6,03000E-005
     170,464  6,06000E-005
     170,704  5,99000E-005
     170,944  6,02000E-005
     171,184  6,03000E-005
     171,424  6,01000E-005
     171,664  5,99000E-005
     171,903  5,99000E-005
     172,143  5,99000E-005
     172,383  6,02000E-005
     172,623  5,96000E-005
     172,863  5,96000E-005
     173,103  5,95000E-005
     173,343  5,95000E-005
     173,583  5,96000E-005
     173,822  5,93000E-005
     174,062  5,94000E-005
     174,302  5,92000E-005
     174,542  5,92000E-005
     174,782  5,87000E-005
     175,022  5,89000E-005
     175,262  5,88000E-005
     175,502  5,88000E-005
     175,741  5,85000E-005
     175,981  5,85000E-005
     176,221  5,85000E-005
     176,461  5,81000E-005
     176,701  5,80000E-005
     176,941  5,81000E-005
     177,181  5,85000E-005
     177,421  5,82000E-005
     177,660  5,80000E-005
     177,900  5,78000E-005
     178,140  5,77000E-005
     178,380  5,77000E-005
     178,620  5,80000E-005
     178,860  5,75000E-005
     179,100  5,78000E-005
     179,339  5,72000E-005
     179,579  5,74000E-005
     179,819  5,72000E-005
     180,059  5,70000E-005
     180,299  5,70000E-005
     180,539  5,73000E-005
     180,779  5,67000E-005
     181,019  5,69000E-005
     181,259  5,70000E-005
     181,498  5,68000E-005
     181,738  5,65000E-005
     181,978  5,66000E-005
     182,218  5,66000E-005
     182,458  5,67000E-005
     182,698  5,66000E-005
     182,938  5,67000E-005
     183,177  5,63000E-005
     183,417  5,66000E-005
     183,657  5,64000E-005
     183,897  5,62000E-005
     184,137  5,61000E-005
     184,377  5,61000E-005
     184,617  5,61000E-005
     184,857  5,60000E-005
     185,706  5,60000E-005
     185,996  5,57000E-005
     186,266  5,59000E-005
     186,506  5,56000E-005
     186,746  5,57000E-005
     186,986  5,55000E-005
     187,225  5,56000E-005
     187,465  5,53000E-005
     187,705  5,52000E-005
     187,945  5,53000E-005
     188,185  5,55000E-005
     188,425  5,48000E-005
     188,665  5,51000E-005
     188,905  5,49000E-005
     189,144  5,48000E-005
     189,385  5,47000E-005
     189,624  5,46000E-005
     189,864  5,44000E-005
     190,104  5,45000E-005
     190,344  5,48000E-005
     190,584  5,46000E-005
     190,824  5,42000E-005
     191,064  5,44000E-005
     191,304  5,47000E-005
     191,543  5,41000E-005
     191,783  5,43000E-005
     192,023  5,37000E-005
     192,263  5,38000E-005
     192,503  5,41000E-005
     192,743  5,39000E-005
     192,983  5,42000E-005
     193,223  5,38000E-005
     193,462  5,36000E-005
     193,702  5,37000E-005
     193,942  5,35000E-005
     194,182  5,36000E-005
     194,422  5,35000E-005
     194,662  5,34000E-005
     194,902  5,34000E-005
     195,142  5,32000E-005
     195,382  5,32000E-005
     195,621  5,31000E-005
     195,862  5,31000E-005
     196,102  5,29000E-005
     196,342  5,29000E-005
     196,581  5,28000E-005
     196,822  5,30000E-005
     197,062  5,30000E-005
     197,301  5,27000E-005
     197,541  5,23000E-005
     197,781  5,27000E-005
     198,021  5,24000E-005
     198,261  5,27000E-005
     198,501  5,27000E-005
     198,741  5,22000E-005
     198,982  5,25000E-005
     199,222  5,20000E-005
     199,462  5,24000E-005
     199,703  5,21000E-005
     199,942  5,20000E-005
     200,182  5,24000E-005
     200,422  5,22000E-005
     200,663  5,17000E-005
     200,903  5,18000E-005
     201,143  5,17000E-005
     201,383  5,15000E-005
     201,623  5,17000E-005
     201,863  5,14000E-005
     202,103  5,17000E-005
     202,343  5,15000E-005
     202,583  5,14000E-005
     202,823  5,15000E-005
     203,064  5,14000E-005
     203,304  5,11000E-005
     203,544  5,15000E-005
     203,785  5,11000E-005
     204,025  5,12000E-005
     204,265  5,09000E-005
     204,505  5,10000E-005
     204,745  5,10000E-005
     204,986  5,09000E-005
     205,227  5,06000E-005
     205,467  5,06000E-005
     205,707  5,06000E-005
     205,947  5,10000E-005
     206,187  5,01000E-005
     206,427  5,06000E-005
     206,667  5,03000E-005
     206,907  5,04000E-005
     207,147  5,06000E-005
     207,387  5,04000E-005
     207,628  5,03000E-005
     207,868  5,04000E-005
     208,108  5,00000E-005
     208,348  5,03000E-005
     208,588  5,01000E-005
     208,828  5,01000E-005
     209,069  5,00000E-005
     209,309  4,97000E-005
     209,549  5,00000E-005
     209,789  4,96000E-005
     210,030  4,98000E-005
     210,270  4,96000E-005
     210,510  4,94000E-005
     210,750  4,98000E-005
     210,990  4,94000E-005
     211,230  4,91000E-005
     211,469  4,96000E-005
     211,709  4,93000E-005
     211,949  4,92000E-005
     212,189  4,93000E-005
     212,429  4,93000E-005
     212,669  4,92000E-005
     212,909  4,89000E-005
     213,149  4,86000E-005
     213,389  4,88000E-005
     213,629  4,88000E-005
     213,869  4,89000E-005
     214,109  4,88000E-005
     214,348  4,89000E-005
     214,588  4,92000E-005
     214,828  4,85000E-005
     215,068  4,85000E-005
     215,308  4,82000E-005
     215,548  4,84000E-005
     215,788  4,82000E-005
     216,029  4,87000E-005
     216,268  4,83000E-005
     216,508  4,82000E-005
     216,748  4,80000E-005
     216,988  4,82000E-005
     217,228  4,80000E-005
     217,468  4,82000E-005
     217,708  4,81000E-005
     217,948  4,81000E-005
     218,188  4,76000E-005
     218,428  4,79000E-005
     218,668  4,78000E-005
     218,908  4,79000E-005
     219,148  4,79000E-005
     219,388  4,81000E-005
     219,628  4,78000E-005
     219,867  4,73000E-005
     220,107  4,74000E-005
     220,347  4,77000E-005
     220,587  4,75000E-005
     220,827  4,72000E-005
     221,067  4,72000E-005
     221,307  4,75000E-005
     221,547  4,74000E-005
     221,787  4,71000E-005
     222,027  4,70000E-005
     222,266  4,71000E-005
     222,506  4,75000E-005
     222,746  4,72000E-005
     222,986  4,67000E-005
     223,226  4,71000E-005
     223,466  4,66000E-005
     223,706  4,67000E-005
     223,946  4,69000E-005
     224,185  4,69000E-005
     224,425  4,65000E-005
     224,665  4,66000E-005
     224,905  4,66000E-005
     225,145  4,68000E-005
     225,385  4,66000E-005
     225,625  4,64000E-005
     225,865  4,62000E-005
     226,105  4,65000E-005
     226,345  4,62000E-005
     226,585  4,66000E-005
     226,825  4,64000E-005
     227,065  4,63000E-005
     227,305  4,61000E-005
     227,545  4,62000E-005
     227,785  4,59000E-005
     228,024  4,61000E-005
     228,264  4,60000E-005
     228,504  4,56000E-005
     228,744  4,58000E-005
     228,984  4,58000E-005
     229,224  4,59000E-005
     229,464  4,57000E-005
     229,704  4,59000E-005
     229,944  4,57000E-005
     230,183  4,58000E-005
     230,423  4,57000E-005
     230,663  4,55000E-005
     230,903  4,54000E-005
     231,143  4,53000E-005
     231,383  4,55000E-005
     231,623  4,53000E-005
     231,863  4,55000E-005
     232,103  4,55000E-005
     232,343  4,52000E-005
     232,583  4,52000E-005
     232,823  4,51000E-005
     233,063  4,49000E-005
     233,303  4,51000E-005
     233,543  4,47000E-005
     233,783  4,50000E-005
     234,023  4,47000E-005
     234,263  4,52000E-005
     234,503  4,50000E-005
     234,743  4,47000E-005
     234,983  4,48000E-005
     235,222  4,50000E-005
     235,462  4,48000E-005
     235,702  4,50000E-005
     235,942  4,49000E-005
     236,182  4,45000E-005
     236,422  4,45000E-005
     236,662  4,48000E-005
     236,902  4,45000E-005
     237,142  4,44000E-005
     237,382  4,44000E-005
     237,621  4,42000E-005
     237,861  4,44000E-005
     238,101  4,43000E-005
     238,341  4,43000E-005
     238,581  4,39000E-005
     238,821  4,42000E-005
     239,061  4,39000E-005
     239,301  4,42000E-005
     239,541  4,40000E-005
     239,791  4,37000E-005
     240,031  4,40000E-005
     240,270  4,38000E-005
     240,510  4,42000E-005
     240,750  4,38000E-005
     240,990  4,35000E-005
     241,230  4,37000E-005
     241,470  4,35000E-005
     241,710  4,35000E-005
     241,950  4,34000E-005
     242,190  4,35000E-005
     242,430  4,35000E-005
     242,670  4,33000E-005
     242,910  4,35000E-005
     243,150  4,34000E-005
     243,400  4,34000E-005
     243,639  4,37000E-005
     243,879  4,33000E-005
     244,119  4,29000E-005
     244,359  4,33000E-005
     244,599  4,34000E-005
     244,839  4,34000E-005
     245,079  4,32000E-005
     245,319  4,27000E-005
     245,559  4,31000E-005
     245,809  4,29000E-005
     246,049  4,31000E-005
     246,299  4,27000E-005
     246,539  4,30000E-005
     246,779  4,30000E-005
     247,019  4,27000E-005
     247,259  4,29000E-005
     247,509  4,27000E-005
     247,759  4,25000E-005
     247,999  4,25000E-005
     248,249  4,28000E-005
     248,489  4,24000E-005
     248,729  4,27000E-005
     248,969  4,24000E-005
     249,209  4,28000E-005
     249,459  4,25000E-005
     249,699  4,23000E-005
     249,939  4,24000E-005
     250,179  4,23000E-005
     250,419  4,22000E-005
     250,659  4,23000E-005
     250,909  4,22000E-005
     251,148  4,24000E-005
     251,398  4,21000E-005
     251,638  4,20000E-005
     251,888  4,22000E-005
     252,128  4,22000E-005
     252,378  4,21000E-005
     252,618  4,19000E-005
     252,858  4,21000E-005
     253,108  4,17000E-005
     253,348  4,17000E-005
     253,598  4,20000E-005
     253,837  4,18000E-005
     254,077  4,16000E-005
     254,327  4,18000E-005
     254,567  4,17000E-005
     254,817  4,12000E-005
     255,057  4,14000E-005
     255,307  4,15000E-005
     255,547  4,15000E-005
     255,797  4,15000E-005
     256,037  4,14000E-005
     256,277  4,15000E-005
     256,517  4,13000E-005
     256,757  4,13000E-005
     256,997  4,08000E-005
     257,237  4,11000E-005
     257,477  4,15000E-005
     257,727  4,15000E-005
     257,967  4,16000E-005
     258,207  4,12000E-005
     258,447  4,11000E-005
     258,697  4,11000E-005
     258,937  4,09000E-005
     259,177  4,07000E-005
     259,417  4,07000E-005
     259,667  4,13000E-005
     259,907  4,09000E-005
     260,157  4,11000E-005
     260,407  4,08000E-005
     260,657  4,05000E-005
     260,906  4,06000E-005
     261,156  4,09000E-005
     261,406  4,09000E-005
     261,646  4,04000E-005
     261,886  4,09000E-005
     262,136  4,08000E-005
     262,386  4,08000E-005
     262,626  4,03000E-005
     262,866  4,05000E-005
     263,106  4,07000E-005
     263,356  4,08000E-005
     263,596  4,09000E-005
     263,846  4,04000E-005
     264,085  4,04000E-005
     264,336  4,01000E-005
     264,575  4,02000E-005
     264,825  4,00000E-005
     265,075  4,01000E-005
     265,325  4,03000E-005
     265,575  4,04000E-005
     265,825  4,03000E-005
     266,075  4,01000E-005
     266,325  4,03000E-005
     266,575  4,00000E-005
     266,825  3,98000E-005
     267,075  4,00000E-005
     267,324  4,01000E-005
     267,574  3,99000E-005
     267,824  4,01000E-005
     268,075  3,98000E-005
     268,325  3,98000E-005
     268,574  3,97000E-005
     268,815  3,99000E-005
     269,055  3,98000E-005
     269,305  3,97000E-005
     269,555  3,96000E-005
     269,805  3,96000E-005
     270,055  3,97000E-005
     270,305  3,95000E-005
     270,555  3,94000E-005
     270,804  3,94000E-005
     271,054  3,96000E-005
     271,294  3,95000E-005
     271,534  3,94000E-005
     271,784  3,89000E-005
     272,034  3,92000E-005
     272,284  3,94000E-005
     272,534  3,96000E-005
     272,783  3,93000E-005
     273,039  3,92000E-005
     273,297  3,90000E-005
     273,534  3,92000E-005
     273,784  3,88000E-005
     274,034  3,93000E-005
     274,284  3,90000E-005
     274,524  3,89000E-005
     274,774  3,88000E-005
     275,023  3,88000E-005
     275,273  3,91000E-005
     275,513  3,89000E-005
     275,763  3,89000E-005
     276,013  3,88000E-005
     276,253  3,88000E-005
     276,493  3,86000E-005
     276,732  3,86000E-005
     276,972  3,86000E-005
     277,222  3,84000E-005
     277,462  3,87000E-005
     277,712  3,85000E-005
     277,962  3,83000E-005
     278,212  3,87000E-005
     278,462  3,84000E-005
     278,711  3,84000E-005
     278,961  3,83000E-005
     279,211  3,83000E-005
     279,461  3,83000E-005
     279,711  3,85000E-005
     279,951  3,84000E-005
     280,191  3,83000E-005
     280,441  3,81000E-005
     280,690  3,86000E-005
     280,940  3,79000E-005
     281,190  3,81000E-005
     281,440  3,80000E-005
     281,690  3,82000E-005
     281,940  3,82000E-005
     282,190  3,82000E-005
     282,439  3,78000E-005
     282,679  3,77000E-005
     282,929  3,76000E-005
     283,179  3,78000E-005
     283,429  3,76000E-005
     283,679  3,77000E-005
     283,929  3,78000E-005
     284,179  3,78000E-005
     284,428  3,80000E-005
     284,678  3,76000E-005
     284,928  3,76000E-005
     285,178  3,76000E-005
     285,428  3,78000E-005
     285,668  3,76000E-005
     285,918  3,75000E-005
     286,167  3,74000E-005
     286,417  3,75000E-005
     286,667  3,76000E-005
     286,917  3,72000E-005
     287,167  3,73000E-005
     288,356  3,74000E-005
     288,596  3,73000E-005
     288,846  3,71000E-005
     289,096  3,72000E-005
     289,346  3,70000E-005
     289,596  3,71000E-005
     289,846  3,66000E-005
     290,095  3,72000E-005
     290,345  3,70000E-005
     290,595  3,67000E-005
     290,845  3,70000E-005
     291,095  3,68000E-005
     291,345  3,70000E-005
     291,595  3,69000E-005
     291,845  3,64000E-005
     292,094  3,68000E-005
     292,344  3,67000E-005
     292,594  3,69000E-005
     292,844  3,70000E-005
     293,094  3,69000E-005
     293,344  3,65000E-005
     293,594  3,64000E-005
     293,843  3,67000E-005
     294,093  3,67000E-005
     294,713  3,63000E-005
     294,953  3,68000E-005
     295,203  3,62000E-005
     295,453  3,62000E-005
     295,703  3,65000E-005
     295,952  3,57000E-005
     296,202  3,65000E-005
     296,452  3,63000E-005
     296,702  3,64000E-005
     296,952  3,63000E-005
     297,202  3,61000E-005
     297,452  3,63000E-005
     297,702  3,61000E-005
     297,951  3,62000E-005
     298,201  3,56000E-005
     298,451  3,61000E-005
     298,701  3,60000E-005
     298,951  3,60000E-005
     299,201  3,59000E-005
     299,451  3,58000E-005
     299,700  3,57000E-005
     299,950  3,58000E-005
     300,200  3,59000E-005
     300,450  3,56000E-005
     300,700  3,56000E-005
     300,950  3,56000E-005
     301,190  3,61000E-005
     301,430  3,57000E-005
     301,689  3,56000E-005
     301,929  3,57000E-005
     302,189  3,52000E-005
     302,429  3,56000E-005
     302,679  3,56000E-005
     302,929  3,56000E-005
     303,169  3,57000E-005
     303,409  3,53000E-005
     303,658  3,57000E-005
     303,908  3,53000E-005
     304,158  3,53000E-005
     304,408  3,56000E-005
     304,648  3,52000E-005
     304,898  3,54000E-005
     305,148  3,48000E-005
     305,397  3,51000E-005
     305,647  3,51000E-005
     305,897  3,54000E-005
     306,147  3,51000E-005
     306,397  3,54000E-005
     306,647  3,53000E-005
     306,897  3,52000E-005
     307,147  3,52000E-005
     307,396  3,50000E-005
     307,646  3,50000E-005
     307,896  3,53000E-005
     308,146  3,50000E-005
     308,396  3,50000E-005
     308,646  3,48000E-005
     308,886  3,51000E-005
     309,135  3,46000E-005
     309,385  3,48000E-005
     309,635  3,49000E-005
     309,885  3,51000E-005
     310,135  3,45000E-005
     310,385  3,47000E-005
     310,635  3,49000E-005
     310,884  3,50000E-005
     311,134  3,43000E-005
     311,384  3,45000E-005
     311,634  3,44000E-005
     311,884  3,49000E-005
     312,134  3,46000E-005
     312,384  3,45000E-005
     312,634  3,47000E-005
     312,883  3,44000E-005
     313,133  3,41000E-005
     313,383  3,42000E-005
     313,633  3,43000E-005
     313,883  3,43000E-005
     314,133  3,44000E-005
     314,383  3,42000E-005
     314,632  3,44000E-005
     314,882  3,43000E-005
     315,132  3,40000E-005
     315,382  3,41000E-005
     315,632  3,42000E-005
     315,882  3,44000E-005
     316,132  3,42000E-005
     316,382  3,43000E-005
     316,631  3,43000E-005
     316,881  3,41000E-005
     317,121  3,38000E-005
     317,371  3,43000E-005
     317,621  3,38000E-005
     317,871  3,37000E-005
     318,121  3,40000E-005
     318,371  3,40000E-005
     318,620  3,37000E-005
     318,870  3,40000E-005
     319,120  3,37000E-005
     319,370  3,40000E-005
     319,620  3,39000E-005
     319,870  3,39000E-005
     320,120  3,39000E-005
     320,369  3,35000E-005
     320,619  3,38000E-005
     320,879  3,37000E-005
     321,119  3,36000E-005
     321,369  3,36000E-005
     321,619  3,38000E-005
     321,869  3,36000E-005
     322,119  3,36000E-005
     322,368  3,35000E-005
     322,618  3,35000E-005
     322,868  3,36000E-005
     323,118  3,33000E-005
     323,368  3,33000E-005
     323,618  3,34000E-005
     323,868  3,35000E-005
     324,117  3,32000E-005
     324,367  3,34000E-005
     324,617  3,34000E-005
     324,867  3,33000E-005
     325,117  3,35000E-005
     325,367  3,31000E-005
     325,617  3,34000E-005
     325,867  3,28000E-005
     326,116  3,30000E-005
     326,366  3,30000E-005
     326,616  3,29000E-005
     326,866  3,34000E-005
     327,116  3,30000E-005
     327,366  3,32000E-005
     327,616  3,37000E-005
     327,865  3,31000E-005
     328,115  3,27000E-005
     328,365  3,29000E-005
     328,615  3,28000E-005
     328,865  3,30000E-005
     329,115  3,31000E-005
     329,365  3,31000E-005
     329,614  3,27000E-005
     329,864  3,26000E-005
     330,114  3,26000E-005
     330,364  3,25000E-005
     330,614  3,26000E-005
     330,864  3,26000E-005
     331,114  3,26000E-005
     331,364  3,22000E-005
     331,613  3,27000E-005
     331,863  3,24000E-005
     332,113  3,23000E-005
     332,363  3,28000E-005
     332,613  3,22000E-005
     332,863  3,24000E-005
     333,113  3,27000E-005
     333,362  3,24000E-005
     333,612  3,23000E-005
     333,862  3,24000E-005
     334,112  3,23000E-005
     334,362  3,22000E-005
     334,612  3,22000E-005
     334,862  3,24000E-005
     335,112  3,23000E-005
     335,361  3,20000E-005
     335,611  3,20000E-005
     335,861  3,25000E-005
     336,111  3,21000E-005
     336,361  3,22000E-005
     336,611  3,21000E-005
     336,861  3,22000E-005
     337,110  3,18000E-005
     337,360  3,22000E-005
     337,610  3,21000E-005
     337,860  3,18000E-005
     338,110  3,23000E-005
     338,360  3,19000E-005
     338,610  3,17000E-005
     338,860  3,18000E-005
     339,109  3,20000E-005
     339,359  3,18000E-005
     339,609  3,19000E-005
     339,859  3,13000E-005
     340,109  3,16000E-005
     340,359  3,18000E-005
     340,609  3,19000E-005
     340,868  3,16000E-005
     341,108  3,18000E-005
     341,358  3,17000E-005
     341,608  3,18000E-005
     341,868  3,16000E-005
     342,108  3,15000E-005
     342,358  3,16000E-005
     342,608  3,13000E-005
     342,857  3,15000E-005
     343,107  3,16000E-005
     343,367  3,15000E-005
     343,607  3,17000E-005
     343,857  3,15000E-005
     344,107  3,13000E-005
     344,357  3,13000E-005
     344,606  3,12000E-005
     344,856  3,12000E-005
     345,106  3,13000E-005
     345,356  3,15000E-005
     345,616  3,13000E-005
     345,856  3,13000E-005
     346,106  3,15000E-005
     346,356  3,13000E-005
     346,615  3,13000E-005
     346,855  3,14000E-005
     347,105  3,13000E-005
     347,365  3,11000E-005
     347,605  3,09000E-005
     347,855  3,11000E-005
     348,105  3,12000E-005
     348,364  3,17000E-005
     348,604  3,11000E-005
     348,854  3,08000E-005
     349,104  3,09000E-005
     349,354  3,07000E-005
     349,604  3,09000E-005
     349,854  3,07000E-005
     350,104  3,10000E-005
     350,363  3,09000E-005
     350,603  3,09000E-005
     350,853  3,08000E-005
     351,103  3,11000E-005
     351,363  3,05000E-005
     351,603  3,09000E-005
     351,863  3,07000E-005
     352,103  3,06000E-005
     352,362  3,07000E-005
     352,602  3,06000E-005
     352,862  3,10000E-005
     353,102  3,03000E-005
     353,352  3,06000E-005
     353,612  3,07000E-005
     353,862  3,05000E-005
     354,101  3,06000E-005
     354,362  3,06000E-005
     354,601  3,03000E-005
     354,851  3,06000E-005
     355,111  3,03000E-005
     355,351  3,03000E-005
     355,601  3,11000E-005
     355,851  3,03000E-005
     356,111  3,03000E-005
     356,351  3,06000E-005
     356,601  3,06000E-005
     356,851  3,03000E-005
     357,101  3,04000E-005
     357,361  3,05000E-005
     357,611  3,01000E-005
     357,862  3,03000E-005
     358,101  3,00000E-005
     358,361  3,01000E-005
     358,601  3,02000E-005
     358,861  3,01000E-005
     359,111  3,04000E-005
     359,361  3,02000E-005
     359,611  2,98000E-005
     359,861  3,02000E-005
     360,111  3,03000E-005
     360,361  3,01000E-005
     360,601  2,99000E-005
     360,861  2,99000E-005
     361,101  2,98000E-005
     361,351  2,99000E-005
     361,611  3,00000E-005
     361,851  3,03000E-005
     362,111  2,98000E-005
     362,361  2,99000E-005
     362,611  3,00000E-005
     362,851  3,00000E-005
     363,100  2,97000E-005
     363,350  2,98000E-005
     363,610  3,01000E-005
     363,850  3,00000E-005
     364,110  2,98000E-005
     364,350  2,98000E-005
     364,600  2,99000E-005
     364,850  3,01000E-005
     365,110  2,96000E-005
     365,351  2,99000E-005
     365,610  2,96000E-005
     365,850  2,93000E-005
     366,110  2,93000E-005
     366,350  2,97000E-005
     366,600  2,95000E-005
     366,860  2,98000E-005
     367,100  2,97000E-005
     367,360  2,98000E-005
     367,600  2,96000E-005
     367,860  2,98000E-005
     368,099  2,93000E-005
     368,359  2,89000E-005
     368,609  2,96000E-005
     368,859  2,95000E-005
     369,109  2,91000E-005
     369,359  2,95000E-005
     369,609  2,95000E-005
     369,849  2,93000E-005
     370,109  2,94000E-005
     370,359  2,93000E-005
     370,599  2,92000E-005
     370,859  2,92000E-005
     371,099  2,92000E-005
     371,349  2,93000E-005
     371,609  2,93000E-005
     371,849  2,94000E-005
     372,109  2,90000E-005
     372,359  2,94000E-005
     372,608  2,90000E-005
     372,858  2,94000E-005
     373,109  2,92000E-005
     373,358  2,94000E-005
     373,599  2,90000E-005
     373,859  2,87000E-005
     374,109  2,90000E-005
     374,360  2,90000E-005
     374,600  2,90000E-005
     374,850  2,91000E-005
     375,110  2,89000E-005
     375,360  2,93000E-005
     375,610  2,86000E-005
     375,860  2,90000E-005
     376,110  2,88000E-005
     376,360  2,92000E-005
     376,610  2,91000E-005
     376,860  2,87000E-005
     377,110  2,89000E-005
     377,360  2,87000E-005
     377,610  2,90000E-005
     377,860  2,86000E-005
     378,110  2,86000E-005
     378,350  2,84000E-005
     378,610  2,86000E-005
     378,860  2,86000E-005
     379,100  2,90000E-005
     379,360  2,86000E-005
     379,610  2,85000E-005
     379,860  2,87000E-005
     380,110  2,82000E-005
     380,360  2,83000E-005
     380,610  2,87000E-005
     380,860  2,85000E-005
     381,110  2,87000E-005
     381,360  2,88000E-005
     381,609  2,87000E-005
     381,859  2,83000E-005
     382,109  2,84000E-005
     382,359  2,87000E-005
     382,609  2,85000E-005
     382,849  2,82000E-005
     383,109  2,85000E-005
     383,359  2,87000E-005
     383,609  2,84000E-005
     383,859  2,83000E-005
     384,109  2,83000E-005
     384,349  2,83000E-005
     384,599  2,83000E-005
     384,849  2,81000E-005
     385,109  2,77000E-005
     385,359  2,82000E-005
     385,609  2,78000E-005
     385,859  2,81000E-005
     386,109  2,83000E-005
     386,359  2,83000E-005
     386,598  2,83000E-005
     386,849  2,81000E-005
     387,109  2,81000E-005
     387,359  2,78000E-005
     387,608  2,77000E-005
     387,858  2,78000E-005
     388,108  2,81000E-005
     388,358  2,79000E-005
     388,608  2,82000E-005
     388,858  2,76000E-005
     389,108  2,79000E-005
     389,359  2,77000E-005
     389,608  2,80000E-005
     389,858  2,78000E-005
     390,108  2,77000E-005
     390,358  2,74000E-005
     390,608  2,78000E-005
     390,858  2,78000E-005
     391,098  2,72000E-005
     391,358  2,74000E-005
     391,608  2,78000E-005
     391,857  2,76000E-005
     392,107  2,78000E-005
     392,357  2,76000E-005
     392,607  2,79000E-005
     392,857  2,74000E-005
     393,107  2,75000E-005
     393,357  2,73000E-005
     393,607  2,75000E-005
     393,857  2,77000E-005
     394,106  2,73000E-005
     394,356  2,74000E-005
     394,606  2,77000E-005
     394,856  2,75000E-005
     395,106  2,77000E-005
     395,356  2,78000E-005
     395,606  2,76000E-005
     395,856  2,72000E-005
     396,106  2,74000E-005
     396,356  2,72000E-005
     396,606  2,71000E-005
     396,856  2,70000E-005
     397,106  2,75000E-005
     397,356  2,73000E-005
     397,606  2,72000E-005
     397,856  2,74000E-005
     398,105  2,71000E-005
     398,355  2,73000E-005
     398,605  2,71000E-005
     398,855  2,71000E-005
     399,105  2,69000E-005
     399,355  2,74000E-005
     399,605  2,69000E-005
     399,855  2,69000E-005
     400,105  2,73000E-005
     400,355  2,73000E-005
     400,604  2,71000E-005
     400,854  2,72000E-005
     401,105  2,71000E-005
     401,355  2,73000E-005
     401,605  2,73000E-005
     401,855  2,70000E-005
     402,105  2,70000E-005
     402,355  2,67000E-005
     402,604  2,73000E-005
     402,854  2,71000E-005
     403,104  2,68000E-005
     403,354  2,68000E-005
     403,604  2,68000E-005
     403,854  2,69000E-005
     404,104  2,68000E-005
     404,354  2,70000E-005
     404,604  2,67000E-005
     404,854  2,71000E-005
     405,104  2,69000E-005
     405,354  2,71000E-005
     405,604  2,67000E-005
     405,854  2,65000E-005
     406,104  2,66000E-005
     406,354  2,67000E-005
     406,603  2,67000E-005
     406,853  2,67000E-005
     407,103  2,67000E-005
     407,353  2,67000E-005
     407,603  2,68000E-005
     407,853  2,68000E-005
     408,103  2,66000E-005
     408,353  2,67000E-005
     408,603  2,63000E-005
     408,853  2,66000E-005
     409,103  2,66000E-005
     409,353  2,67000E-005
     409,603  2,67000E-005
     409,853  2,63000E-005
     410,103  2,68000E-005
     410,353  2,66000E-005
     410,603  2,64000E-005
     410,853  2,62000E-005
     411,103  2,68000E-005
     411,353  2,66000E-005
     411,603  2,63000E-005
     411,853  2,64000E-005
     412,103  2,64000E-005
     412,352  2,65000E-005
     412,602  2,66000E-005
     412,852  2,64000E-005
     413,102  2,62000E-005
     413,352  2,62000E-005
     413,602  2,66000E-005
     413,852  2,58000E-005
     414,102  2,64000E-005
     414,351  2,64000E-005
     414,601  2,63000E-005
     414,851  2,63000E-005
     415,101  2,62000E-005
     415,351  2,62000E-005
     415,601  2,63000E-005
     415,851  2,62000E-005
     416,101  2,60000E-005
     416,351  2,60000E-005
     416,601  2,61000E-005
     416,851  2,60000E-005
     417,100  2,64000E-005
     417,350  2,60000E-005
     417,600  2,61000E-005
     417,850  2,58000E-005
     418,100  2,59000E-005
     418,350  2,66000E-005
     418,600  2,62000E-005
     418,850  2,59000E-005
     419,100  2,59000E-005
     419,350  2,62000E-005
     419,600  2,59000E-005
     419,850  2,59000E-005
     420,100  2,59000E-005
     420,350  2,60000E-005
     420,599  2,59000E-005
     420,849  2,60000E-005
     421,099  2,58000E-005
     421,349  2,59000E-005
     421,599  2,60000E-005
     421,849  2,58000E-005
     422,099  2,58000E-005
     422,349  2,60000E-005
     422,599  2,57000E-005
     422,849  2,61000E-005
     423,098  2,58000E-005
     423,348  2,54000E-005
     423,598  2,58000E-005
     423,848  2,59000E-005
     424,098  2,57000E-005
     424,348  2,52000E-005
     424,598  2,58000E-005
     424,848  2,60000E-005
     425,097  2,56000E-005
     425,347  2,56000E-005
     425,597  2,58000E-005
     425,847  2,55000E-005
     426,097  2,53000E-005
     426,347  2,57000E-005
     426,597  2,52000E-005
     426,847  2,57000E-005
     427,097  2,57000E-005
     427,347  2,52000E-005
     427,597  2,58000E-005
     427,847  2,55000E-005
     428,097  2,54000E-005
     428,347  2,55000E-005
     428,597  2,55000E-005
     428,847  2,53000E-005
     429,097  2,53000E-005
     429,346  2,54000E-005
     429,596  2,52000E-005
     429,846  2,55000E-005
     430,096  2,56000E-005
     430,346  2,55000E-005
     430,596  2,53000E-005
     430,846  2,49000E-005
     431,096  2,55000E-005
     431,346  2,53000E-005
     431,596  2,53000E-005
     431,846  2,53000E-005
     432,095  2,52000E-005
     432,345  2,52000E-005
     432,595  2,56000E-005
     432,845  2,51000E-005
     433,095  2,52000E-005
     433,345  2,53000E-005
     433,595  2,51000E-005
     433,845  2,54000E-005
     434,095  2,52000E-005
     434,345  2,53000E-005
     434,595  2,51000E-005
     434,844  2,52000E-005
     435,094  2,51000E-005
     435,344  2,50000E-005
     435,594  2,50000E-005
     435,844  2,52000E-005
     436,094  2,47000E-005
     436,344  2,51000E-005
     436,594  2,48000E-005
     436,844  2,53000E-005
     437,094  2,47000E-005
     437,344  2,50000E-005
     437,594  2,50000E-005
     437,844  2,51000E-005
     438,094  2,50000E-005
     438,343  2,48000E-005
     438,593  2,49000E-005
     438,843  2,50000E-005
     439,093  2,54000E-005
     439,343  2,51000E-005
     439,593  2,47000E-005
     439,843  2,50000E-005
     440,093  2,50000E-005
     440,343  2,49000E-005
     440,593  2,51000E-005
     440,843  2,49000E-005
     441,093  2,49000E-005
     441,342  2,49000E-005
     441,593  2,46000E-005
     441,843  2,52000E-005
     442,093  2,47000E-005
     442,343  2,51000E-005
     442,593  2,48000E-005
     442,843  2,48000E-005
     443,092  2,46000E-005
     443,343  2,44000E-005
     443,593  2,45000E-005
     443,843  2,47000E-005
     444,093  2,46000E-005
     444,343  2,48000E-005
     444,593  2,45000E-005
     444,842  2,48000E-005
     445,092  2,46000E-005
     445,342  2,47000E-005
     445,592  2,43000E-005
     445,842  2,46000E-005
     446,092  2,45000E-005
     446,342  2,44000E-005
     446,592  2,47000E-005
     446,842  2,46000E-005
     447,092  2,45000E-005
     447,342  2,44000E-005
     447,592  2,46000E-005
     447,842  2,43000E-005
     448,092  2,41000E-005
     448,342  2,45000E-005
     448,592  2,43000E-005
     448,842  2,43000E-005
     449,092  2,46000E-005
     449,342  2,44000E-005
     449,592  2,45000E-005
     449,842  2,43000E-005
     450,092  2,44000E-005
     450,342  2,40000E-005
     450,592  2,43000E-005
     450,841  2,44000E-005
     451,091  2,41000E-005
     451,341  2,39000E-005
     451,591  2,44000E-005
     451,841  2,41000E-005
     452,091  2,41000E-005
     452,341  2,43000E-005
     452,591  2,42000E-005
     452,841  2,40000E-005
     453,091  2,40000E-005
     453,341  2,41000E-005
     453,591  2,40000E-005
     453,840  2,42000E-005
     454,090  2,40000E-005
     454,340  2,45000E-005
     454,590  2,43000E-005
     454,840  2,39000E-005
     455,090  2,42000E-005
     455,340  2,46000E-005
     455,589  2,39000E-005
     455,839  2,40000E-005
     456,089  2,41000E-005
     456,339  2,39000E-005
     456,589  2,41000E-005
     456,839  2,41000E-005
     457,089  2,35000E-005
     457,339  2,37000E-005
     457,589  2,39000E-005
     457,839  2,38000E-005
     458,089  2,39000E-005
     458,339  2,39000E-005
     458,589  2,35000E-005
     458,839  2,43000E-005
     459,089  2,37000E-005
     459,339  2,35000E-005
     459,589  2,37000E-005
     459,839  2,36000E-005
     460,089  2,39000E-005
     460,339  2,40000E-005
     460,589  2,35000E-005
     460,839  2,38000E-005
     461,089  2,38000E-005
     461,338  2,36000E-005
     461,588  2,39000E-005
     461,838  2,33000E-005
     462,088  2,34000E-005
     462,338  2,35000E-005
     462,589  2,36000E-005
     462,839  2,36000E-005
     463,089  2,40000E-005
     463,339  2,37000E-005
     463,589  2,39000E-005
     463,839  2,37000E-005
     464,089  2,35000E-005
     464,339  2,38000E-005
     464,588  2,37000E-005
     464,839  2,34000E-005
     465,088  2,36000E-005
     465,338  2,38000E-005
     465,588  2,36000E-005
     465,838  2,34000E-005
     466,088  2,31000E-005
     466,338  2,35000E-005
     466,588  2,36000E-005
     466,838  2,33000E-005
     467,088  2,31000E-005
     467,338  2,34000E-005
     467,588  2,34000E-005
     467,838  2,35000E-005
     468,087  2,33000E-005
     468,338  2,37000E-005
     468,587  2,34000E-005
     468,837  2,32000E-005
     469,087  2,35000E-005
     469,337  2,35000E-005
     469,587  2,37000E-005
     469,837  2,34000E-005
     470,087  2,31000E-005
     470,337  2,30000E-005
     470,586  2,36000E-005
     470,836  2,35000E-005
     471,086  2,30000E-005
     471,336  2,33000E-005
     471,586  2,35000E-005
     471,836  2,34000E-005
     472,086  2,32000E-005
     472,336  2,35000E-005
     472,586  2,28000E-005
     472,836  2,32000E-005
     473,085  2,31000E-005
     473,335  2,33000E-005
     473,585  2,29000E-005
     473,835  2,32000E-005
     474,085  2,30000E-005
     474,335  2,33000E-005
     474,585  2,33000E-005
     474,836  2,31000E-005
     475,086  2,31000E-005
     475,336  2,30000E-005
     475,586  2,32000E-005
     475,836  2,27000E-005
     476,086  2,32000E-005
     476,336  2,31000E-005
     476,586  2,33000E-005
     476,836  2,25000E-005
     477,086  2,29000E-005
     477,336  2,31000E-005
     477,585  2,31000E-005
     477,835  2,27000E-005
     478,085  2,30000E-005
     478,335  2,29000E-005
     478,585  2,30000E-005
     478,835  2,25000E-005
     479,085  2,29000E-005
     479,335  2,28000E-005
     479,585  2,30000E-005
     479,835  2,26000E-005
     480,085  2,30000E-005
     480,335  2,25000E-005
     480,584  2,28000E-005
     480,834  2,28000E-005
     481,085  2,29000E-005
     481,335  2,31000E-005
     481,585  2,25000E-005
     481,834  2,27000E-005
     482,084  2,26000E-005
     482,334  2,28000E-005
     482,584  2,23000E-005
     482,834  2,23000E-005
     483,084  2,26000E-005
     483,334  2,23000E-005
     483,584  2,27000E-005
     483,834  2,27000E-005
     484,084  2,28000E-005
     484,334  2,22000E-005
     484,584  2,27000E-005
     484,833  2,24000E-005
     485,083  2,23000E-005
     485,333  2,19000E-005
     485,583  2,23000E-005
     485,833  2,24000E-005
     486,083  2,21000E-005
     486,333  2,20000E-005
     486,583  2,22000E-005
     486,833  2,24000E-005
     487,083  2,22000E-005
     487,333  2,24000E-005
     487,582  2,25000E-005
     487,832  2,26000E-005
     488,082  2,23000E-005
     488,332  2,27000E-005
     488,582  2,23000E-005
     488,832  2,25000E-005
     489,082  2,24000E-005
     489,332  2,22000E-005
     489,582  2,23000E-005
     489,832  2,19000E-005
     490,082  2,20000E-005
     490,332  2,20000E-005
     490,581  2,21000E-005
     490,831  2,24000E-005
     491,081  2,22000E-005
     491,331  2,19000E-005
     491,581  2,24000E-005
     491,831  2,22000E-005
     492,081  2,24000E-005
     492,331  2,20000E-005
     492,581  2,22000E-005
     492,831  2,20000E-005
     493,080  2,17000E-005
     493,330  2,23000E-005
     493,580  2,23000E-005
     493,830  2,22000E-005
     494,080  2,19000E-005
     494,330  2,19000E-005
     494,580  2,18000E-005
     494,830  2,23000E-005
     495,080  2,17000E-005
     495,329  2,20000E-005
     495,579  2,21000E-005
     495,829  2,18000E-005
     496,079  2,19000E-005
     496,329  2,17000E-005
     496,579  2,20000E-005
     496,829  2,21000E-005
     497,079  2,20000E-005
     497,329  2,18000E-005
     497,579  2,18000E-005
     497,829  2,19000E-005
     498,079  2,21000E-005
     498,329  2,16000E-005
     498,579  2,17000E-005
     498,829  2,19000E-005
     499,079  2,19000E-005
     499,329  2,18000E-005
     499,579  2,19000E-005
     499,829  2,18000E-005
     500,079  2,16000E-005
     500,329  2,18000E-005
     500,579  2,15000E-005
     500,829  2,16000E-005
     501,079  2,14000E-005
     501,329  2,17000E-005
     501,579  2,18000E-005
     501,829  2,17000E-005
     502,079  2,13000E-005
     502,329  2,14000E-005
     502,579  2,17000E-005
     502,829  2,15000E-005
     503,079  2,16000E-005
     503,328  2,12000E-005
     503,578  2,12000E-005
     503,828  2,14000E-005
     504,078  2,16000E-005
     504,328  2,11000E-005
     504,578  2,18000E-005
     504,828  2,15000E-005
     505,078  2,14000E-005
     505,328  2,14000E-005
     505,578  2,13000E-005
     505,828  2,12000E-005
     506,078  2,13000E-005
     506,327  2,14000E-005
     506,577  2,19000E-005
     506,827  2,14000E-005
     507,077  2,16000E-005
     507,327  2,15000E-005
     507,577  2,16000E-005
     507,827  2,12000E-005
     508,077  2,11000E-005
     508,327  2,15000E-005
     508,577  2,12000E-005
     508,827  2,15000E-005
     509,077  2,16000E-005
     509,327  2,13000E-005
     509,576  2,10000E-005
     509,826  2,12000E-005
     510,076  2,13000E-005
     510,326  2,12000E-005
     510,576  2,13000E-005
     510,826  2,12000E-005
     511,076  2,14000E-005
     511,326  2,15000E-005
     511,576  2,11000E-005
     511,826  2,11000E-005
     512,076  2,09000E-005
     512,325  2,14000E-005
     512,575  2,15000E-005
     512,825  2,12000E-005
     513,075  2,15000E-005
     513,325  2,11000E-005
     513,575  2,14000E-005
     513,825  2,14000E-005
     514,075  2,12000E-005
     514,325  2,11000E-005
     514,575  2,10000E-005
     514,825  2,12000E-005
     515,075  2,14000E-005
     515,325  2,13000E-005
     515,574  2,11000E-005
     515,824  2,16000E-005
     516,074  2,13000E-005
     516,324  2,09000E-005
     516,574  2,12000E-005
     516,824  2,11000E-005
     517,074  2,13000E-005
     517,324  2,08000E-005
     517,574  2,08000E-005
     517,824  2,13000E-005
     518,073  2,11000E-005
     518,324  2,13000E-005
     518,573  2,07000E-005
     518,823  2,12000E-005
     519,073  2,07000E-005
     519,323  2,10000E-005
     519,573  2,12000E-005
     519,823  2,09000E-005
     520,073  2,08000E-005
     520,323  2,11000E-005
     520,573  2,11000E-005
     520,823  2,09000E-005
     521,073  2,05000E-005
     521,323  2,09000E-005
     521,573  2,04000E-005
     521,823  2,09000E-005
     522,073  2,10000E-005
     522,323  2,05000E-005
     522,573  2,03000E-005
     522,823  2,04000E-005
     523,073  2,11000E-005
     523,323  2,11000E-005
     523,573  2,07000E-005
     523,823  2,08000E-005
     524,073  2,07000E-005
     524,323  2,08000E-005
     524,573  2,10000E-005
     524,823  2,09000E-005
     525,073  2,07000E-005
     525,323  2,09000E-005
     525,573  2,05000E-005
     525,823  2,07000E-005
     526,073  2,09000E-005
     526,323  2,08000E-005
     526,573  2,08000E-005
     526,823  2,07000E-005
     527,073  2,09000E-005
     527,323  2,06000E-005
     527,573  2,06000E-005
     527,823  2,06000E-005
     528,073  2,06000E-005
     528,323  2,07000E-005
     528,573  2,09000E-005
     528,823  2,06000E-005
     529,073  2,06000E-005
     529,323  2,08000E-005
     529,572  2,09000E-005
     529,832  2,05000E-005
     530,082  2,10000E-005
     530,332  2,05000E-005
     530,582  2,04000E-005
     530,832  2,06000E-005
     531,082  2,06000E-005
     531,332  2,05000E-005
     531,581  2,06000E-005
     531,831  2,07000E-005
     532,081  2,03000E-005
     532,331  2,07000E-005
     532,581  2,05000E-005
     532,831  2,05000E-005
     533,081  2,06000E-005
     533,330  2,04000E-005
     533,580  2,02000E-005
     533,830  2,06000E-005
     534,080  2,04000E-005
     534,330  2,05000E-005
     534,580  2,04000E-005
     534,830  2,04000E-005
     535,080  2,02000E-005
     535,329  2,04000E-005
     535,579  2,05000E-005
     535,829  2,04000E-005
     536,079  2,02000E-005
     536,329  2,05000E-005
     536,579  2,01000E-005
     536,829  2,04000E-005
     537,078  2,02000E-005
     537,328  2,05000E-005
     537,578  2,03000E-005
     537,828  2,04000E-005
     538,078  2,02000E-005
     538,328  2,04000E-005
     538,578  2,03000E-005
     538,828  2,03000E-005
     539,078  2,05000E-005
     539,327  2,04000E-005
     539,577  2,04000E-005
     539,827  2,03000E-005
     540,077  2,02000E-005
     540,327  2,02000E-005
     540,577  2,01000E-005
     540,827  2,02000E-005
     541,077  2,04000E-005
     541,326  2,03000E-005
     541,576  2,02000E-005
     541,826  2,02000E-005
     542,076  1,99000E-005
     542,326  2,02000E-005
     542,576  2,00000E-005
     542,826  2,02000E-005
     543,075  2,04000E-005
     543,325  2,02000E-005
     543,575  2,00000E-005
     543,825  2,04000E-005
     544,075  2,01000E-005
     544,325  1,97000E-005
     544,575  2,00000E-005
     544,825  2,02000E-005
     545,074  1,99000E-005
     545,324  2,01000E-005
     545,574  2,02000E-005
     545,824  1,98000E-005
     546,074  2,00000E-005
     546,324  1,96000E-005
     546,574  2,03000E-005
     546,823  2,00000E-005
     547,073  2,01000E-005
     547,323  2,03000E-005
     547,573  1,99000E-005
     547,823  2,00000E-005
     548,073  2,01000E-005
     548,323  2,01000E-005
     548,573  1,99000E-005
     548,823  1,99000E-005
     549,073  1,98000E-005
     549,323  2,01000E-005
     549,573  1,99000E-005
     549,823  1,97000E-005
     550,073  1,99000E-005
     550,323  2,00000E-005
     550,573  2,01000E-005
     550,822  2,01000E-005
     551,073  2,02000E-005
     551,323  1,98000E-005
     551,572  1,96000E-005
     551,822  2,00000E-005
     552,072  1,95000E-005
     552,322  2,02000E-005
     552,572  2,03000E-005
     552,822  2,00000E-005
     553,072  1,98000E-005
     553,322  2,00000E-005
     553,572  1,97000E-005
     553,822  2,01000E-005
     554,072  1,98000E-005
     554,322  2,00000E-005
     554,571  1,97000E-005
     554,821  2,02000E-005
     555,071  1,99000E-005
     555,321  1,99000E-005
     555,571  2,01000E-005
     555,821  1,95000E-005
     556,071  2,00000E-005
     556,321  2,00000E-005
     556,571  1,97000E-005
     556,820  1,99000E-005
     557,070  1,98000E-005
     557,320  2,00000E-005
     557,570  2,03000E-005
     557,820  1,97000E-005
     558,070  1,98000E-005
     558,320  1,96000E-005
     558,570  1,96000E-005
     558,820  1,99000E-005
     559,070  1,95000E-005
     559,319  1,97000E-005
     559,569  1,98000E-005
     559,819  1,99000E-005
     560,069  2,00000E-005
     560,319  2,00000E-005
     560,569  1,96000E-005
     560,819  1,96000E-005
     561,069  1,94000E-005
     561,319  1,97000E-005
     561,569  2,01000E-005
     561,819  1,95000E-005
     562,069  1,97000E-005
     562,319  1,99000E-005
     562,569  1,96000E-005
     562,819  1,98000E-005
     563,069  1,96000E-005
     563,319  1,97000E-005
     563,569  2,00000E-005
     563,819  1,98000E-005
     564,069  1,96000E-005
     564,318  1,97000E-005
     564,568  1,93000E-005
     564,819  1,96000E-005
     565,069  1,94000E-005
     565,318  1,98000E-005
     565,568  1,91000E-005
     565,819  1,96000E-005
     566,068  1,97000E-005
     566,318  1,96000E-005
     566,568  1,95000E-005
     566,818  1,96000E-005
     567,069  1,97000E-005
     567,319  1,97000E-005
     567,569  1,94000E-005
     567,819  1,93000E-005
     568,068  1,96000E-005
     568,318  1,97000E-005
     568,568  1,96000E-005
     568,818  1,93000E-005
     569,068  1,95000E-005
     569,318  1,93000E-005
     569,568  1,93000E-005
     569,818  1,95000E-005
     570,068  1,89000E-005
     570,318  1,93000E-005
     570,568  1,95000E-005
     570,818  1,97000E-005
     571,068  1,93000E-005
     571,318  1,95000E-005
     571,568  1,97000E-005
     571,817  1,95000E-005
     572,067  1,90000E-005
     572,317  1,96000E-005
     572,567  1,91000E-005
     572,817  1,94000E-005
     573,067  1,91000E-005
     573,317  1,96000E-005
     573,567  1,94000E-005
     573,817  1,93000E-005
     574,067  1,94000E-005
     574,317  1,92000E-005
     574,567  1,95000E-005
     574,817  1,89000E-005
     575,067  1,91000E-005
     575,317  1,93000E-005
     575,567  1,91000E-005
     575,817  1,95000E-005
     576,067  1,95000E-005
     576,317  1,94000E-005
     576,567  1,95000E-005
     576,817  1,95000E-005
     577,067  1,95000E-005
     577,317  1,94000E-005
     577,567  1,95000E-005
     577,817  1,90000E-005
     578,067  1,92000E-005
     578,317  1,92000E-005
     578,567  1,93000E-005
     578,816  1,92000E-005
     579,066  1,94000E-005
     579,316  1,91000E-005
     579,566  1,91000E-005
     579,816  1,93000E-005
     580,066  1,92000E-005
     580,316  1,93000E-005
     580,566  1,91000E-005
     580,816  1,95000E-005
     581,066  1,89000E-005
     581,316  1,91000E-005
     581,566  1,93000E-005
     581,816  1,92000E-005
     582,066  1,93000E-005
     582,316  1,89000E-005
     582,566  1,94000E-005
     582,816  1,91000E-005
     583,066  1,91000E-005
     583,316  1,92000E-005
     583,566  1,91000E-005
     583,816  1,90000E-005
     584,066  1,92000E-005
     584,317  1,90000E-005
     584,567  1,91000E-005
     584,817  1,93000E-005
     585,067  1,91000E-005
     585,316  1,92000E-005
     585,566  1,91000E-005
     585,817  1,88000E-005
     586,066  1,90000E-005
     586,316  1,90000E-005
     586,566  1,90000E-005
     586,816  1,90000E-005
     587,066  1,92000E-005
     587,316  1,93000E-005
     587,566  1,89000E-005
     587,816  1,88000E-005
     588,066  1,88000E-005
     588,316  1,89000E-005
     588,566  1,87000E-005
     588,816  1,88000E-005
     589,066  1,90000E-005
     589,316  1,91000E-005
     589,566  1,88000E-005
     589,816  1,87000E-005
     590,066  1,92000E-005
     590,316  1,85000E-005
     590,566  1,90000E-005
     590,815  1,92000E-005
     591,065  1,93000E-005
     591,315  1,91000E-005
     591,565  1,88000E-005
     591,815  1,88000E-005
     592,065  1,84000E-005
     592,316  1,87000E-005
     592,566  1,87000E-005
     592,816  1,90000E-005
     593,065  1,89000E-005
     593,315  1,89000E-005
     593,565  1,88000E-005
     593,815  1,89000E-005
     594,065  1,88000E-005
     594,315  1,88000E-005
     594,565  1,88000E-005
     594,815  1,92000E-005
     595,065  1,85000E-005
     595,315  1,86000E-005
     595,564  1,88000E-005
     595,814  1,88000E-005
     596,064  1,86000E-005
     596,314  1,86000E-005
     596,564  1,88000E-005
     596,814  1,86000E-005
     597,064  1,90000E-005
     597,314  1,87000E-005
     597,564  1,88000E-005
     597,814  1,87000E-005
     598,074  1,88000E-005
     598,334  1,86000E-005
     598,584  1,86000E-005
     598,834  1,83000E-005
     599,083  1,86000E-005
     599,333  1,87000E-005
     599,584  1,88000E-005
     599,834  1,87000E-005
     600,093  1,83000E-005
     600,353  1,82000E-005
     600,603  1,88000E-005
     600,853  1,87000E-005
     601,103  1,85000E-005
     601,353  1,85000E-005
     601,603  1,85000E-005
     601,853  1,85000E-005
     602,103  1,86000E-005
     602,353  1,86000E-005
     602,603  1,82000E-005
     602,853  1,87000E-005
     603,103  1,84000E-005
     603,353  1,87000E-005
     603,602  1,85000E-005
     603,852  1,88000E-005
     604,102  1,86000E-005
     604,352  1,85000E-005
     604,602  1,87000E-005
     604,852  1,87000E-005
     605,102  1,84000E-005
     605,352  1,81000E-005
     605,602  1,84000E-005
     605,852  1,87000E-005
     606,101  1,83000E-005
     606,351  1,85000E-005
     606,601  1,84000E-005
     606,851  1,84000E-005
     607,101  1,83000E-005
     607,351  1,83000E-005
     607,601  1,84000E-005
     607,851  1,83000E-005
     608,101  1,87000E-005
     608,351  1,87000E-005
     608,601  1,83000E-005
     608,851  1,85000E-005
     609,101  1,80000E-005
     609,351  1,84000E-005
     609,600  1,86000E-005
     609,850  1,84000E-005
     610,100  1,81000E-005
     610,350  1,86000E-005
     610,600  1,87000E-005
     610,850  1,84000E-005
     611,100  1,82000E-005
     611,363  1,85000E-005
     611,615  1,84000E-005
     611,865  1,85000E-005
     612,129  1,87000E-005
     612,382  1,84000E-005
     612,632  1,84000E-005
     612,882  1,85000E-005
     613,132  1,84000E-005
     613,382  1,81000E-005
     613,632  1,86000E-005
     613,882  1,85000E-005
     614,132  1,83000E-005
     614,382  1,87000E-005
     614,631  1,82000E-005
     614,881  1,80000E-005
     615,131  1,81000E-005
     615,386  1,81000E-005
     615,636  1,83000E-005
     615,886  1,82000E-005
     616,136  1,84000E-005
     616,386  1,83000E-005
     616,642  1,83000E-005
     616,892  1,79000E-005
     617,142  1,82000E-005
     617,392  1,84000E-005
     617,642  1,83000E-005
     617,892  1,79000E-005
     618,142  1,83000E-005
     618,392  1,79000E-005
     618,642  1,79000E-005
     618,892  1,80000E-005
     619,142  1,78000E-005
     619,392  1,83000E-005
     619,641  1,81000E-005
     619,891  1,84000E-005
     620,141  1,78000E-005
     620,391  1,81000E-005
     620,641  1,84000E-005
     620,891  1,79000E-005
     621,141  1,84000E-005
     621,391  1,80000E-005
     621,640  1,82000E-005
     621,890  1,83000E-005
     622,140  1,80000E-005
     622,400  1,81000E-005
     622,660  1,78000E-005
     622,910  1,82000E-005
     623,160  1,81000E-005
     623,450  1,78000E-005
     623,700  1,83000E-005
     623,950  1,80000E-005
     624,199  1,83000E-005
     624,459  1,83000E-005
     624,709  1,85000E-005
     624,959  1,79000E-005
     625,209  1,80000E-005
     625,469  1,80000E-005
     625,719  1,80000E-005
     625,969  1,81000E-005
     626,219  1,82000E-005
     626,488  1,79000E-005
     626,758  1,80000E-005
     627,008  1,78000E-005
     627,258  1,84000E-005
     627,518  1,82000E-005
     627,768  1,81000E-005
     628,018  1,76000E-005
     628,268  1,78000E-005
     628,518  1,79000E-005
     628,768  1,80000E-005
     629,017  1,83000E-005
     629,267  1,81000E-005
     629,517  1,81000E-005
     629,767  1,81000E-005
     630,017  1,77000E-005
     630,267  1,81000E-005
     630,517  1,80000E-005
     630,766  1,79000E-005
     631,016  1,80000E-005
     631,266  1,78000E-005
     631,516  1,83000E-005
     631,766  1,80000E-005
     632,016  1,77000E-005
     632,266  1,76000E-005
     632,516  1,80000E-005
     632,765  1,78000E-005
     633,015  1,81000E-005
     633,265  1,77000E-005
     633,515  1,77000E-005
     633,765  1,78000E-005
     634,015  1,76000E-005
     634,265  1,78000E-005
     634,514  1,79000E-005
     634,764  1,78000E-005
     635,014  1,79000E-005
     635,264  1,78000E-005
     635,514  1,78000E-005
     635,764  1,79000E-005
     636,014  1,76000E-005
     636,264  1,76000E-005
     636,513  1,78000E-005
     636,763  1,78000E-005
     637,013  1,79000E-005
     637,263  1,80000E-005
     637,513  1,78000E-005
     637,773  1,76000E-005
     638,023  1,77000E-005
     638,273  1,79000E-005
     638,523  1,78000E-005
     638,773  1,79000E-005
     639,022  1,75000E-005
     639,272  1,80000E-005
     639,522  1,77000E-005
     639,772  1,75000E-005
     640,022  1,79000E-005
     640,272  1,78000E-005
     640,522  1,78000E-005
     640,772  1,79000E-005
     641,022  1,75000E-005
     641,271  1,77000E-005
     641,531  1,80000E-005
     641,781  1,79000E-005
     642,041  1,79000E-005
     642,291  1,81000E-005
     642,551  1,78000E-005
     642,801  1,75000E-005
     643,051  1,79000E-005
     643,301  1,76000E-005
     643,550  1,76000E-005
     643,800  1,74000E-005
     644,050  1,76000E-005
     644,310  1,73000E-005
     644,570  1,77000E-005
     644,820  1,74000E-005
     645,070  1,76000E-005
     645,319  1,77000E-005
     645,569  1,77000E-005
     645,819  1,77000E-005
     646,069  1,77000E-005
     646,319  1,77000E-005
     646,569  1,74000E-005
     646,819  1,79000E-005
     647,069  1,75000E-005
     647,329  1,79000E-005
     647,589  1,76000E-005
     647,839  1,74000E-005
     648,098  1,77000E-005
     648,348  1,73000E-005
     648,598  1,76000E-005
     648,848  1,79000E-005
     649,108  1,75000E-005
     649,358  1,77000E-005
     649,618  1,77000E-005
     649,868  1,73000E-005
     650,118  1,77000E-005
     650,378  1,74000E-005
     650,637  1,77000E-005
     650,887  1,74000E-005
     651,147  1,76000E-005
     651,397  1,76000E-005
     651,647  1,75000E-005
     651,897  1,76000E-005
     652,147  1,75000E-005
     652,406  1,73000E-005
     652,656  1,79000E-005
     652,906  1,75000E-005
     653,166  1,73000E-005
     653,426  1,75000E-005
     653,686  1,76000E-005
     653,936  1,72000E-005
     654,196  1,74000E-005
     654,455  1,74000E-005
     654,705  1,75000E-005
     654,965  1,74000E-005
     655,215  1,77000E-005
     655,475  1,75000E-005
     655,725  1,73000E-005
     655,985  1,77000E-005
     656,244  1,75000E-005
     656,504  1,77000E-005
     656,764  1,73000E-005
     657,014  1,73000E-005
     657,264  1,75000E-005
     657,524  1,75000E-005
     657,774  1,76000E-005
     658,023  1,75000E-005
     658,273  1,73000E-005
     658,523  1,71000E-005
     658,773  1,72000E-005
     659,033  1,72000E-005
     659,293  1,74000E-005
     659,543  1,73000E-005
     659,793  1,71000E-005
     660,052  1,72000E-005
     660,302  1,74000E-005
     660,562  1,74000E-005
     660,812  1,76000E-005
     661,062  1,73000E-005
     661,312  1,72000E-005
     661,572  1,72000E-005
     661,821  1,74000E-005
     662,071  1,73000E-005
     662,321  1,73000E-005
     662,571  1,70000E-005
     662,821  1,73000E-005
     663,071  1,73000E-005
     663,331  1,72000E-005
     663,580  1,74000E-005
     663,830  1,73000E-005
     664,080  1,70000E-005
     664,330  1,74000E-005
     664,590  1,72000E-005
     664,840  1,77000E-005
     665,090  1,71000E-005
     665,350  1,72000E-005
     665,609  1,72000E-005
     665,859  1,74000E-005
     666,119  1,73000E-005
     666,369  1,71000E-005
     666,629  1,72000E-005
     666,879  1,71000E-005
     667,129  1,71000E-005
     667,379  1,69000E-005
     667,629  1,73000E-005
     667,879  1,72000E-005
     668,128  1,72000E-005
     668,378  1,73000E-005
     668,638  1,76000E-005
     668,888  1,73000E-005
     669,148  1,74000E-005
     669,408  1,71000E-005
     669,668  1,73000E-005
     669,918  1,72000E-005
     670,177  1,75000E-005
     670,427  1,72000E-005
     670,687  1,73000E-005
     670,937  1,71000E-005
     671,187  1,70000E-005
     671,437  1,72000E-005
     671,687  1,70000E-005
     671,936  1,73000E-005
     672,186  1,71000E-005
     672,436  1,69000E-005
     672,686  1,72000E-005
     672,936  1,71000E-005
     673,196  1,70000E-005
     673,446  1,70000E-005
     673,705  1,71000E-005
     673,955  1,71000E-005
     674,205  1,70000E-005
     674,455  1,70000E-005
     674,705  1,75000E-005
     674,955  1,71000E-005
     675,205  1,70000E-005
     675,455  1,67000E-005
     675,704  1,69000E-005
     675,954  1,70000E-005
     676,274  1,69000E-005
     676,524  1,71000E-005
     676,784  1,67000E-005
     677,044  1,71000E-005
     677,304  1,70000E-005
     677,563  1,73000E-005
     677,813  1,67000E-005
     678,073  1,72000E-005
     678,323  1,74000E-005
     678,573  1,71000E-005
     678,823  1,67000E-005
     679,083  1,70000E-005
     679,343  1,70000E-005
     679,603  1,71000E-005
     679,853  1,70000E-005
     680,103  1,69000E-005
     680,363  1,69000E-005
     680,623  1,68000E-005
     680,872  1,70000E-005
     681,132  1,69000E-005
     681,392  1,69000E-005
     681,652  1,71000E-005
     681,902  1,69000E-005
     682,152  1,69000E-005
     682,412  1,69000E-005
     682,672  1,70000E-005
     682,923  1,69000E-005
     683,183  1,69000E-005
     683,443  1,70000E-005
     683,693  1,67000E-005
     683,952  1,68000E-005
     684,212  1,67000E-005
     684,472  1,69000E-005
     684,732  1,70000E-005
     684,992  1,68000E-005
     685,252  1,65000E-005
     685,512  1,71000E-005
     685,772  1,69000E-005
     686,031  1,67000E-005
     686,291  1,69000E-005
     686,551  1,66000E-005
     686,811  1,70000E-005
     687,071  1,69000E-005
     687,331  1,67000E-005
     687,591  1,70000E-005
     687,851  1,66000E-005
     688,111  1,69000E-005
     688,371  1,69000E-005
     688,631  1,69000E-005
     688,891  1,70000E-005
     689,141  1,69000E-005
     689,401  1,65000E-005
     689,661  1,68000E-005
     689,920  1,66000E-005
     690,180  1,65000E-005
     690,440  1,69000E-005
     690,700  1,67000E-005
     690,960  1,70000E-005
     691,220  1,67000E-005
     691,480  1,68000E-005
     691,740  1,64000E-005
     692,000  1,67000E-005
     692,260  1,66000E-005
     692,519  1,64000E-005
     692,779  1,68000E-005
     693,039  1,69000E-005
     693,299  1,65000E-005
     693,559  1,67000E-005
     693,819  1,66000E-005
     694,079  1,67000E-005
     694,339  1,68000E-005
     694,598  1,66000E-005
     694,858  1,66000E-005
     695,118  1,68000E-005
     695,378  1,66000E-005
     695,638  1,66000E-005
     695,898  1,66000E-005
     696,148  1,67000E-005
     696,398  1,70000E-005
     696,658  1,66000E-005
     696,918  1,64000E-005
     697,178  1,68000E-005
     697,438  1,70000E-005
     697,698  1,66000E-005
     697,957  1,70000E-005
     698,217  1,62000E-005
     698,477  1,69000E-005
     698,737  1,64000E-005
     698,997  1,63000E-005
     699,257  1,67000E-005
     699,517  1,64000E-005
     699,776  1,65000E-005
     700,036  1,65000E-005
     700,296  1,65000E-005
     700,556  1,63000E-005
     700,806  1,65000E-005
     701,066  1,65000E-005
     701,326  1,67000E-005
     701,576  1,63000E-005
     701,836  1,65000E-005
     702,096  1,63000E-005
     702,356  1,65000E-005
     702,616  1,66000E-005
     702,875  1,65000E-005
     703,136  1,65000E-005
     703,396  1,65000E-005
     703,655  1,62000E-005
     703,905  1,64000E-005
     704,165  1,63000E-005
     704,425  1,64000E-005
     704,685  1,65000E-005
     704,945  1,64000E-005
     705,205  1,65000E-005
     705,464  1,64000E-005
     705,724  1,66000E-005
     705,984  1,66000E-005
     706,244  1,61000E-005
     706,504  1,64000E-005
     706,764  1,64000E-005
     707,024  1,67000E-005
     707,273  1,65000E-005
     707,533  1,66000E-005
     707,793  1,65000E-005
     708,053  1,65000E-005
     708,313  1,66000E-005
     708,563  1,63000E-005
     708,823  1,60000E-005
     709,083  1,63000E-005
     709,343  1,62000E-005
     709,603  1,64000E-005
     709,862  1,66000E-005
     710,122  1,65000E-005
     710,382  1,66000E-005
     710,642  1,63000E-005
     710,902  1,61000E-005
     711,162  1,60000E-005
     711,422  1,64000E-005
     711,682  1,61000E-005
     711,942  1,62000E-005
     712,202  1,67000E-005
     712,461  1,60000E-005
     712,721  1,63000E-005
     712,981  1,65000E-005
     713,241  1,64000E-005
     713,501  1,66000E-005
     713,761  1,63000E-005
     714,021  1,64000E-005
     714,281  1,61000E-005
     714,541  1,59000E-005
     714,801  1,61000E-005
     715,061  1,63000E-005
     715,321  1,64000E-005
     715,581  1,63000E-005
     715,841  1,61000E-005
     716,101  1,63000E-005
     716,361  1,61000E-005
     716,621  1,61000E-005
     716,882  1,62000E-005
     717,132  1,63000E-005
     717,391  1,64000E-005
     717,652  1,61000E-005
     717,912  1,62000E-005
     718,172  1,63000E-005
     718,431  1,59000E-005
     718,691  1,63000E-005
     718,951  1,61000E-005
     719,221  1,62000E-005
     719,471  1,64000E-005
     719,731  1,60000E-005
     719,991  1,60000E-005
     720,251  1,63000E-005
     720,501  1,61000E-005
     720,761  1,59000E-005
     721,021  1,64000E-005
     721,281  1,62000E-005
     721,541  1,61000E-005
     721,801  1,59000E-005
     722,060  1,61000E-005
     722,320  1,57000E-005
     722,580  1,61000E-005
     722,840  1,65000E-005
     723,100  1,61000E-005
     723,360  1,63000E-005
     723,620  1,60000E-005
     723,880  1,63000E-005
     724,140  1,61000E-005
     724,400  1,63000E-005
     724,660  1,62000E-005
     724,920  1,61000E-005
     725,179  1,62000E-005
     725,439  1,61000E-005
     725,699  1,62000E-005
     725,959  1,58000E-005
     726,219  1,63000E-005
     726,479  1,59000E-005
     726,739  1,60000E-005
     726,999  1,61000E-005
     727,259  1,59000E-005
     727,519  1,63000E-005
     727,778  1,63000E-005
     728,038  1,61000E-005
     728,298  1,64000E-005
     728,558  1,61000E-005
     728,818  1,62000E-005
     729,078  1,62000E-005
     729,338  1,59000E-005
     729,598  1,62000E-005
     729,858  1,59000E-005
     730,118  1,61000E-005
     730,378  1,61000E-005
     730,638  1,58000E-005
     730,898  1,61000E-005
     731,157  1,61000E-005
     731,417  1,64000E-005
     731,677  1,62000E-005
     731,937  1,59000E-005
     732,197  1,59000E-005
     732,457  1,62000E-005
     732,717  1,63000E-005
     732,977  1,60000E-005
     733,237  1,63000E-005
     733,497  1,60000E-005
     733,757  1,62000E-005
     734,017  1,61000E-005
     734,277  1,62000E-005
     734,537  1,60000E-005
     734,797  1,62000E-005
     735,057  1,62000E-005
     735,317  1,60000E-005
     735,567  1,61000E-005
     735,827  1,63000E-005
     736,087  1,63000E-005
     736,347  1,62000E-005
     736,607  1,58000E-005
     736,867  1,58000E-005
     737,127  1,62000E-005
     737,387  1,61000E-005
     737,647  1,58000E-005
     737,907  1,61000E-005
     738,166  1,60000E-005
     738,426  1,62000E-005
     738,686  1,60000E-005
     738,946  1,60000E-005
     739,206  1,58000E-005
     739,466  1,58000E-005
     739,726  1,61000E-005
     739,986  1,63000E-005
     740,246  1,56000E-005
     740,506  1,59000E-005
     740,766  1,60000E-005
     741,026  1,60000E-005
     741,286  1,61000E-005
     741,546  1,64000E-005
     741,806  1,61000E-005
     742,066  1,61000E-005
     742,326  1,58000E-005
     742,586  1,59000E-005
     742,846  1,59000E-005
     743,106  1,60000E-005
     743,365  1,60000E-005
     743,626  1,61000E-005
     743,886  1,57000E-005
     744,146  1,57000E-005
     744,406  1,58000E-005
     744,666  1,57000E-005
     744,926  1,59000E-005
     745,186  1,56000E-005
     745,446  1,60000E-005
     745,706  1,59000E-005
     745,966  1,57000E-005
     746,226  1,61000E-005
     746,486  1,58000E-005
     746,746  1,56000E-005
     747,006  1,57000E-005
     747,266  1,53000E-005
     747,525  1,60000E-005
     747,785  1,61000E-005
     748,045  1,61000E-005
     748,305  1,62000E-005
     748,565  1,57000E-005
     748,825  1,58000E-005
     749,085  1,59000E-005
     749,345  1,55000E-005
     749,605  1,60000E-005
     749,865  1,57000E-005
     750,125  1,58000E-005
     750,385  1,58000E-005
     750,645  1,59000E-005
     750,905  1,57000E-005
     751,165  1,56000E-005
     751,425  1,58000E-005
     751,685  1,59000E-005
     751,945  1,62000E-005
     752,205  1,61000E-005
     752,465  1,61000E-005
     752,725  1,55000E-005
     752,985  1,61000E-005
     753,244  1,57000E-005
     753,504  1,60000E-005
     753,764  1,59000E-005
     754,024  1,59000E-005
     754,284  1,53000E-005
     754,544  1,58000E-005
     754,804  1,55000E-005
     755,064  1,58000E-005
     755,324  1,54000E-005
     755,584  1,60000E-005
     755,843  1,55000E-005
     756,103  1,58000E-005
     756,363  1,58000E-005
     756,623  1,57000E-005
     756,883  1,59000E-005
     757,153  1,60000E-005
     757,403  1,57000E-005
     757,663  1,56000E-005
     757,923  1,59000E-005
     758,183  1,58000E-005
     758,443  1,58000E-005
     758,703  1,61000E-005
     758,962  1,55000E-005
     759,232  1,57000E-005
     759,482  1,59000E-005
     759,742  1,54000E-005
     760,002  1,54000E-005
     760,262  1,56000E-005
     760,522  1,54000E-005
     760,792  1,59000E-005
     761,042  1,55000E-005
     761,312  1,57000E-005
     761,562  1,54000E-005
     761,832  1,57000E-005
     762,082  1,56000E-005
     762,341  1,56000E-005
     762,601  1,58000E-005
     762,861  1,54000E-005
     763,131  1,55000E-005
     763,381  1,52000E-005
     763,651  1,56000E-005
     763,901  1,53000E-005
     764,171  1,53000E-005
     764,420  1,55000E-005
     764,680  1,60000E-005
     764,940  1,53000E-005
     765,200  1,56000E-005
     765,470  1,54000E-005
     765,720  1,55000E-005
     765,990  1,55000E-005
     766,240  1,55000E-005
     766,500  1,53000E-005
     766,760  1,56000E-005
     767,020  1,58000E-005
     767,280  1,52000E-005
     767,549  1,55000E-005
     767,799  1,51000E-005
     768,069  1,55000E-005
     768,319  1,57000E-005
     768,589  1,54000E-005
     768,839  1,55000E-005
     769,109  1,55000E-005
     769,369  1,55000E-005
     769,618  1,57000E-005
     769,879  1,56000E-005
     770,148  1,52000E-005
     770,398  1,58000E-005
     770,668  1,51000E-005
     770,918  1,52000E-005
     771,188  1,55000E-005
     771,438  1,56000E-005
     771,708  1,53000E-005
     771,958  1,56000E-005
     772,228  1,55000E-005
     772,478  1,55000E-005
     772,738  1,57000E-005
     772,998  1,54000E-005
     773,268  1,55000E-005
     773,518  1,54000E-005
     773,787  1,55000E-005
     774,038  1,55000E-005
     774,297  1,51000E-005
     774,557  1,51000E-005
     774,817  1,51000E-005
     775,077  1,53000E-005
     775,337  1,54000E-005
     775,607  1,55000E-005
     775,867  1,54000E-005
     776,127  1,55000E-005
     776,377  1,55000E-005
     776,637  1,51000E-005
     776,897  1,54000E-005
     777,167  1,56000E-005
     777,417  1,53000E-005
     777,687  1,54000E-005
     777,937  1,51000E-005
     778,206  1,56000E-005
     778,457  1,49000E-005
     778,727  1,56000E-005
     778,977  1,50000E-005
     779,247  1,55000E-005
     779,507  1,54000E-005
     779,767  1,51000E-005
     780,017  1,53000E-005
     780,287  1,52000E-005
     780,537  1,51000E-005
     780,807  1,55000E-005
     781,067  1,55000E-005
     781,317  1,48000E-005
     781,577  1,57000E-005
     781,847  1,52000E-005
     782,097  1,54000E-005
     782,367  1,54000E-005
     782,617  1,55000E-005
     782,877  1,52000E-005
     783,147  1,54000E-005
     783,407  1,49000E-005
     783,666  1,54000E-005
     783,916  1,52000E-005
     784,186  1,52000E-005
     784,436  1,53000E-005
     784,696  1,52000E-005
     784,967  1,50000E-005
     785,216  1,51000E-005
     785,486  1,51000E-005
     785,736  1,51000E-005
     785,996  1,52000E-005
     786,256  1,55000E-005
     786,526  1,54000E-005
     786,786  1,52000E-005
     787,046  1,54000E-005
     787,305  1,51000E-005
     787,565  1,54000E-005
     787,815  1,52000E-005
     788,085  1,51000E-005
     788,335  1,52000E-005
     788,605  1,52000E-005
     788,855  1,50000E-005
     789,125  1,53000E-005
     789,385  1,49000E-005
     789,636  1,50000E-005
     789,906  1,55000E-005
     790,165  1,54000E-005
     790,425  1,54000E-005
     790,675  1,51000E-005
     790,935  1,50000E-005
     791,205  1,50000E-005
     791,465  1,51000E-005
     791,715  1,50000E-005
     791,985  1,51000E-005
     792,235  1,55000E-005
     792,505  1,54000E-005
     792,756  1,52000E-005
     793,026  1,49000E-005
     793,286  1,50000E-005
     793,546  1,52000E-005
     793,806  1,51000E-005
     794,066  1,51000E-005
     794,316  1,52000E-005
     794,586  1,50000E-005
     794,846  1,49000E-005
     795,105  1,52000E-005
     795,365  1,52000E-005
     795,615  1,51000E-005
     795,876  1,48000E-005
     796,146  1,50000E-005
     796,406  1,52000E-005
     796,666  1,53000E-005
     796,926  1,53000E-005
     797,186  1,50000E-005
     797,446  1,49000E-005
     797,706  1,49000E-005
     797,956  1,56000E-005
     798,226  1,46000E-005
     798,486  1,50000E-005
     798,746  1,52000E-005
     799,006  1,51000E-005
     799,266  1,51000E-005
     799,526  1,51000E-005
     799,776  1,49000E-005
     800,045  1,54000E-005
     800,305  1,52000E-005
     800,566  1,49000E-005
     800,826  1,52000E-005
     801,086  1,52000E-005
     801,336  1,50000E-005
     801,606  1,52000E-005
     801,866  1,54000E-005
     802,126  1,48000E-005
     802,386  1,49000E-005
     802,646  1,51000E-005
     802,906  1,48000E-005
     803,166  1,48000E-005
     803,416  1,52000E-005
     803,686  1,50000E-005
     803,946  1,51000E-005
     804,206  1,52000E-005
     804,466  1,49000E-005
     804,726  1,50000E-005
     804,986  1,48000E-005
     805,246  1,47000E-005
     805,506  1,48000E-005
     805,766  1,51000E-005
     806,025  1,47000E-005
     806,285  1,47000E-005
     806,545  1,48000E-005
     806,805  1,47000E-005
     807,065  1,48000E-005
     807,325  1,47000E-005
     807,585  1,49000E-005
     807,845  1,51000E-005
     808,105  1,47000E-005
     808,365  1,52000E-005
     808,625  1,49000E-005
     808,885  1,50000E-005
     809,145  1,49000E-005
     809,405  1,50000E-005
     809,665  1,46000E-005
     809,925  1,53000E-005
     810,185  1,55000E-005
     810,445  1,48000E-005
     810,705  1,49000E-005
     810,965  1,46000E-005
     811,225  1,47000E-005
     811,485  1,48000E-005
     811,745  1,48000E-005
     812,005  1,49000E-005
     812,264  1,51000E-005
     812,525  1,48000E-005
     812,784  1,49000E-005
     813,045  1,47000E-005
     813,304  1,49000E-005
     813,564  1,45000E-005
     813,825  1,48000E-005
     814,085  1,47000E-005
     814,345  1,46000E-005
     814,605  1,50000E-005
     814,865  1,43000E-005
     815,125  1,45000E-005
     815,385  1,48000E-005
     815,645  1,50000E-005
     815,905  1,50000E-005
     816,165  1,47000E-005
     816,425  1,48000E-005
     816,685  1,48000E-005
     816,935  1,50000E-005
     817,206  1,48000E-005
     817,466  1,45000E-005
     817,726  1,45000E-005
     817,985  1,47000E-005
     818,245  1,46000E-005
     818,505  1,49000E-005
     818,765  1,50000E-005
     819,026  1,44000E-005
     819,286  1,44000E-005
     819,546  1,46000E-005
     819,806  1,48000E-005
     820,065  1,51000E-005
     820,325  1,49000E-005
     820,585  1,47000E-005
     820,846  1,47000E-005
     821,106  1,48000E-005
     821,366  1,49000E-005
     821,625  1,46000E-005
     821,885  1,48000E-005
     822,145  1,49000E-005
     822,405  1,47000E-005
     822,665  1,49000E-005
     822,925  1,44000E-005
     823,185  1,49000E-005
     823,445  1,45000E-005
     823,705  1,48000E-005
     823,965  1,49000E-005
     824,225  1,50000E-005
     824,485  1,49000E-005
     824,745  1,46000E-005
     825,005  1,46000E-005
     825,265  1,44000E-005
     825,524  1,45000E-005
     825,785  1,47000E-005
     826,045  1,46000E-005
     826,305  1,45000E-005
     826,565  1,48000E-005
     826,825  1,48000E-005
     827,075  1,48000E-005
     827,334  1,46000E-005
     827,604  1,46000E-005
     827,864  1,48000E-005
     828,125  1,43000E-005
     828,384  1,43000E-005
     828,644  1,47000E-005
     828,904  1,48000E-005
     829,164  1,45000E-005
     829,424  1,43000E-005
     829,684  1,47000E-005
     829,944  1,46000E-005
     830,204  1,46000E-005
     830,454  1,43000E-005
     830,724  1,49000E-005
     830,984  1,44000E-005
     831,244  1,48000E-005
     831,504  1,46000E-005
     831,764  1,45000E-005
     832,024  1,46000E-005
     832,284  1,48000E-005
     832,544  1,46000E-005
     832,804  1,44000E-005
     833,063  1,43000E-005
     833,323  1,42000E-005
     833,583  1,44000E-005
     833,843  1,47000E-005
     834,103  1,46000E-005
     834,363  1,43000E-005
     834,623  1,45000E-005
     834,883  1,48000E-005
     835,143  1,46000E-005
     835,403  1,45000E-005
     835,662  1,46000E-005
     835,922  1,44000E-005
     836,182  1,46000E-005
     836,442  1,44000E-005
     836,702  1,44000E-005
     836,962  1,43000E-005
     837,222  1,46000E-005
     837,482  1,42000E-005
     837,742  1,43000E-005
     838,002  1,47000E-005
     838,262  1,47000E-005
     838,522  1,41000E-005
     838,782  1,49000E-005
     839,042  1,44000E-005
     839,302  1,43000E-005
     839,562  1,42000E-005
     839,822  1,44000E-005
     840,082  1,43000E-005
     840,342  1,43000E-005
     840,602  1,44000E-005
     840,862  1,43000E-005
     841,122  1,48000E-005
     841,382  1,42000E-005
     841,642  1,46000E-005
     841,902  1,44000E-005
     842,162  1,44000E-005
     842,412  1,44000E-005
     842,672  1,42000E-005
     842,942  1,44000E-005
     843,202  1,44000E-005
     843,452  1,49000E-005
     843,722  1,42000E-005
     843,982  1,42000E-005
     844,232  1,45000E-005
     844,502  1,43000E-005
     844,762  1,44000E-005
     845,022  1,47000E-005
     845,282  1,45000E-005
     845,541  1,44000E-005
     845,801  1,44000E-005
     846,051  1,41000E-005
     846,321  1,47000E-005
     846,581  1,41000E-005
     846,841  1,41000E-005
     847,101  1,45000E-005
     847,361  1,45000E-005
     847,621  1,44000E-005
     847,881  1,46000E-005
     848,141  1,43000E-005
     848,401  1,42000E-005
     848,661  1,42000E-005
     848,921  1,44000E-005
     849,181  1,44000E-005
     849,441  1,44000E-005
     849,691  1,42000E-005
     849,961  1,44000E-005
     850,221  1,45000E-005
     850,481  1,43000E-005
     850,741  1,42000E-005
     851,001  1,45000E-005
     851,261  1,43000E-005
     851,521  1,40000E-005
     851,781  1,44000E-005
     852,041  1,43000E-005
     852,301  1,40000E-005
     852,562  1,41000E-005
     852,822  1,43000E-005
     853,082  1,47000E-005
     853,342  1,43000E-005
     853,602  1,41000E-005
     853,862  1,43000E-005
     854,122  1,45000E-005
     854,382  1,41000E-005
     854,642  1,44000E-005
     854,902  1,42000E-005
     855,162  1,37000E-005
     855,422  1,42000E-005
     855,682  1,43000E-005
     855,942  1,45000E-005
     856,202  1,44000E-005
     856,461  1,43000E-005
     856,721  1,43000E-005
     856,981  1,45000E-005
     857,241  1,45000E-005
     857,501  1,42000E-005
     857,761  1,41000E-005
     858,021  1,44000E-005
     858,281  1,41000E-005
     858,541  1,43000E-005
     858,801  1,39000E-005
     859,061  1,44000E-005
     859,321  1,44000E-005
     859,581  1,42000E-005
     859,841  1,43000E-005
     860,101  1,42000E-005
     860,361  1,43000E-005
     860,621  1,41000E-005
     860,881  1,43000E-005
     861,141  1,42000E-005
     861,401  1,41000E-005
     861,661  1,42000E-005
     861,920  1,42000E-005
     862,180  1,41000E-005
     862,440  1,44000E-005
     862,700  1,47000E-005
     862,960  1,40000E-005
     863,221  1,42000E-005
     863,481  1,40000E-005
     863,740  1,41000E-005
     864,000  1,43000E-005
     864,260  1,39000E-005
     864,520  1,40000E-005
     864,780  1,39000E-005
     865,040  1,44000E-005
     865,300  1,40000E-005
     865,560  1,39000E-005
     865,820  1,41000E-005
     866,080  1,43000E-005
     866,340  1,37000E-005
     866,600  1,43000E-005
     866,860  1,41000E-005
     867,120  1,42000E-005
     867,380  1,45000E-005
     867,639  1,42000E-005
     867,899  1,43000E-005
     868,160  1,41000E-005
     868,420  1,41000E-005
     868,680  1,41000E-005
     868,939  1,43000E-005
     869,199  1,40000E-005
     869,459  1,41000E-005
     869,719  1,42000E-005
     869,979  1,41000E-005
     870,239  1,40000E-005
     870,499  1,38000E-005
     870,759  1,43000E-005
     871,019  1,41000E-005
     871,279  1,43000E-005
     871,539  1,39000E-005
     871,799  1,42000E-005
     872,059  1,44000E-005
     872,319  1,39000E-005
     872,579  1,40000E-005
     872,839  1,40000E-005
     873,099  1,37000E-005
     873,359  1,39000E-005
     873,619  1,39000E-005
     873,879  1,43000E-005
     874,139  1,43000E-005
     874,399  1,41000E-005
     874,659  1,41000E-005
     874,919  1,38000E-005
     875,179  1,41000E-005
     875,439  1,41000E-005
     875,699  1,43000E-005
     875,959  1,37000E-005
     876,219  1,39000E-005
     876,479  1,43000E-005
     876,739  1,39000E-005
     876,999  1,40000E-005
     877,259  1,38000E-005
     877,519  1,37000E-005
     877,779  1,39000E-005
     878,039  1,41000E-005
     878,299  1,41000E-005
     878,559  1,39000E-005
     878,819  1,40000E-005
     879,079  1,43000E-005
     879,339  1,40000E-005
     879,599  1,42000E-005
     879,859  1,45000E-005
     880,119  1,41000E-005
     880,379  1,39000E-005
     880,639  1,40000E-005
     880,899  1,45000E-005
     881,159  1,37000E-005
     881,419  1,38000E-005
     881,678  1,40000E-005
     881,938  1,39000E-005
     882,198  1,41000E-005
     882,458  1,42000E-005
     882,718  1,38000E-005
     882,978  1,40000E-005
     883,238  1,40000E-005
     883,498  1,39000E-005
     883,758  1,40000E-005
     884,018  1,42000E-005
     884,278  1,41000E-005
     884,538  1,39000E-005
     884,798  1,43000E-005
     885,058  1,41000E-005
     885,318  1,37000E-005
     885,578  1,39000E-005
     885,838  1,36000E-005
     886,098  1,36000E-005
     886,358  1,39000E-005
     886,617  1,39000E-005
     886,877  1,40000E-005
     887,137  1,38000E-005
     887,397  1,40000E-005
     887,657  1,39000E-005
     887,917  1,39000E-005
     888,177  1,37000E-005
     888,437  1,38000E-005
     888,697  1,37000E-005
     888,957  1,39000E-005
     889,217  1,37000E-005
     889,477  1,40000E-005
     889,737  1,40000E-005
     889,997  1,40000E-005
     890,256  1,42000E-005
     890,516  1,42000E-005
     890,776  1,38000E-005
     891,036  1,35000E-005
     891,296  1,38000E-005
     891,556  1,40000E-005
     891,816  1,43000E-005
     892,076  1,38000E-005
     892,336  1,39000E-005
     892,596  1,40000E-005
     892,856  1,36000E-005
     893,116  1,41000E-005
     893,375  1,43000E-005
     893,635  1,41000E-005
     893,895  1,36000E-005
     894,155  1,39000E-005
     894,415  1,39000E-005
     894,675  1,39000E-005
     894,935  1,39000E-005
     895,195  1,38000E-005
     895,455  1,40000E-005
     895,715  1,39000E-005
     895,975  1,40000E-005
     896,235  1,37000E-005
     896,495  1,39000E-005
     896,755  1,37000E-005
     897,015  1,40000E-005
     897,275  1,37000E-005
     897,535  1,39000E-005
     897,795  1,41000E-005
     898,055  1,37000E-005
     898,315  1,38000E-005
     898,575  1,41000E-005
     898,835  1,38000E-005
     899,096  1,38000E-005
     899,355  1,38000E-005
     899,615  1,39000E-005
     899,876  1,37000E-005
     900,136  1,38000E-005
     900,396  1,40000E-005
     900,656  1,37000E-005
     900,917  1,40000E-005
     901,177  1,37000E-005
     901,437  1,39000E-005
     901,697  1,39000E-005
     901,957  1,38000E-005
     902,216  1,37000E-005
     902,476  1,38000E-005
     902,737  1,39000E-005
     902,996  1,38000E-005
     903,257  1,36000E-005
     903,517  1,34000E-005
     903,777  1,36000E-005
     904,036  1,38000E-005
     904,296  1,37000E-005
     904,556  1,37000E-005
     904,816  1,38000E-005
     905,076  1,38000E-005
     905,336  1,37000E-005
     905,596  1,37000E-005
     905,856  1,38000E-005
     906,116  1,38000E-005
     906,376  1,39000E-005
     906,636  1,37000E-005
     906,896  1,39000E-005
     907,157  1,37000E-005
     907,417  1,36000E-005
     907,677  1,37000E-005
     907,937  1,39000E-005
     908,197  1,36000E-005
     908,457  1,37000E-005
     908,717  1,37000E-005
     908,977  1,39000E-005
     909,236  1,39000E-005
     909,496  1,34000E-005
     909,756  1,40000E-005
     910,016  1,40000E-005
     910,276  1,40000E-005
     910,536  1,37000E-005
     910,796  1,36000E-005
     911,056  1,38000E-005
     911,316  1,38000E-005
     911,576  1,38000E-005
     911,836  1,38000E-005
     912,096  1,40000E-005
     912,356  1,36000E-005
     912,616  1,38000E-005
     912,876  1,39000E-005
     913,136  1,38000E-005
     913,396  1,34000E-005
     913,656  1,36000E-005
     913,916  1,39000E-005
     914,176  1,38000E-005
     914,436  1,35000E-005
     914,696  1,39000E-005
     914,956  1,37000E-005
     915,215  1,38000E-005
     915,475  1,39000E-005
     915,735  1,36000E-005
     915,995  1,35000E-005
     916,255  1,38000E-005
     916,515  1,37000E-005
     916,775  1,35000E-005
